"20-30mM-CB20mM - RawData"
"Wavelength nm."	"Abs."
300.00	0.1379
301.00	0.1394
302.00	0.1408
303.00	0.1425
304.00	0.1437
305.00	0.1449
306.00	0.1462
307.00	0.1480
308.00	0.1502
309.00	0.1523
310.00	0.1540
311.00	0.1555
312.00	0.1574
313.00	0.1591
314.00	0.1610
315.00	0.1635
316.00	0.1661
317.00	0.1681
318.00	0.1705
319.00	0.1726
320.00	0.1747
321.00	0.1765
322.00	0.1785
323.00	0.1802
324.00	0.1821
325.00	0.1841
326.00	0.1861
327.00	0.1881
328.00	0.1901
329.00	0.1920
330.00	0.1937
331.00	0.1949
332.00	0.1958
333.00	0.1975
334.00	0.1993
335.00	0.2013
336.00	0.2038
337.00	0.2067
338.00	0.2085
339.00	0.2103
340.00	0.2121
341.00	0.2136
342.00	0.2152
343.00	0.2171
344.00	0.2187
345.00	0.2204
346.00	0.2218
347.00	0.2232
348.00	0.2243
349.00	0.2255
350.00	0.2264
351.00	0.2276
352.00	0.2286
353.00	0.2296
354.00	0.2306
355.00	0.2316
356.00	0.2327
357.00	0.2338
358.00	0.2348
359.00	0.2356
360.00	0.2364
361.00	0.2368
362.00	0.2368
363.00	0.2377
364.00	0.2387
365.00	0.2399
366.00	0.2412
367.00	0.2432
368.00	0.2440
369.00	0.2451
370.00	0.2463
371.00	0.2480
372.00	0.2486
373.00	0.2494
374.00	0.2499
375.00	0.2503
376.00	0.2502
377.00	0.2509
378.00	0.2518
379.00	0.2527
380.00	0.2537
381.00	0.2549
382.00	0.2561
383.00	0.2576
384.00	0.2591
385.00	0.2605
386.00	0.2620
387.00	0.2634
388.00	0.2646
389.00	0.2658
390.00	0.2672
391.00	0.2687
392.00	0.2701
393.00	0.2715
394.00	0.2726
395.00	0.2737
396.00	0.2747
397.00	0.2757
398.00	0.2766
399.00	0.2776
400.00	0.2786
401.00	0.2798
402.00	0.2811
403.00	0.2827
404.00	0.2842
405.00	0.2859
406.00	0.2875
407.00	0.2891
408.00	0.2905
409.00	0.2920
410.00	0.2934
411.00	0.2947
412.00	0.2958
413.00	0.2968
414.00	0.2978
415.00	0.2986
416.00	0.2995
417.00	0.3002
418.00	0.3007
419.00	0.3008
420.00	0.3009
421.00	0.3007
422.00	0.3004
423.00	0.3000
424.00	0.2996
425.00	0.2992
426.00	0.2987
427.00	0.2984
428.00	0.2980
429.00	0.2977
430.00	0.2974
431.00	0.2972
432.00	0.2970
433.00	0.2968
434.00	0.2967
435.00	0.2966
436.00	0.2963
437.00	0.2958
438.00	0.2950
439.00	0.2942
440.00	0.2934
441.00	0.2926
442.00	0.2920
443.00	0.2915
444.00	0.2909
445.00	0.2902
446.00	0.2896
447.00	0.2890
448.00	0.2883
449.00	0.2879
450.00	0.2876
451.00	0.2875
452.00	0.2876
453.00	0.2879
454.00	0.2881
455.00	0.2885
456.00	0.2888
457.00	0.2892
458.00	0.2897
459.00	0.2902
460.00	0.2908
461.00	0.2915
462.00	0.2922
463.00	0.2926
464.00	0.2932
465.00	0.2936
466.00	0.2941
467.00	0.2945
468.00	0.2952
469.00	0.2956
470.00	0.2960
471.00	0.2964
472.00	0.2967
473.00	0.2971
474.00	0.2975
475.00	0.2980
476.00	0.2985
477.00	0.2991
478.00	0.2995
479.00	0.3000
480.00	0.3005
481.00	0.3008
482.00	0.3012
483.00	0.3016
484.00	0.3018
485.00	0.3021
486.00	0.3023
487.00	0.3025
488.00	0.3024
489.00	0.3024
490.00	0.3024
491.00	0.3022
492.00	0.3022
493.00	0.3023
494.00	0.3023
495.00	0.3022
496.00	0.3022
497.00	0.3021
498.00	0.3021
499.00	0.3022
500.00	0.3023
501.00	0.3022
502.00	0.3022
503.00	0.3020
504.00	0.3018
505.00	0.3016
506.00	0.3013
507.00	0.3009
508.00	0.3006
509.00	0.3001
510.00	0.2994
511.00	0.2988
512.00	0.2981
513.00	0.2972
514.00	0.2964
515.00	0.2955
516.00	0.2946
517.00	0.2937
518.00	0.2926
519.00	0.2916
520.00	0.2906
521.00	0.2897
522.00	0.2887
523.00	0.2876
524.00	0.2865
525.00	0.2852
526.00	0.2841
527.00	0.2829
528.00	0.2819
529.00	0.2813
530.00	0.2809
531.00	0.2795
532.00	0.2783
533.00	0.2771
534.00	0.2756
535.00	0.2738
536.00	0.2730
537.00	0.2720
538.00	0.2709
539.00	0.2698
540.00	0.2685
541.00	0.2673
542.00	0.2663
543.00	0.2653
544.00	0.2645
545.00	0.2636
546.00	0.2627
547.00	0.2616
548.00	0.2607
549.00	0.2595
550.00	0.2586
551.00	0.2577
552.00	0.2567
553.00	0.2557
554.00	0.2545
555.00	0.2534
556.00	0.2525
557.00	0.2515
558.00	0.2507
559.00	0.2499
560.00	0.2490
561.00	0.2480
562.00	0.2471
563.00	0.2463
564.00	0.2453
565.00	0.2444
566.00	0.2434
567.00	0.2423
568.00	0.2412
569.00	0.2403
570.00	0.2395
571.00	0.2388
572.00	0.2383
573.00	0.2375
574.00	0.2363
575.00	0.2349
576.00	0.2334
577.00	0.2316
578.00	0.2303
579.00	0.2293
580.00	0.2282
581.00	0.2271
582.00	0.2260
583.00	0.2248
584.00	0.2235
585.00	0.2222
586.00	0.2210
587.00	0.2198
588.00	0.2186
589.00	0.2174
590.00	0.2161
591.00	0.2147
592.00	0.2133
593.00	0.2120
594.00	0.2108
595.00	0.2096
596.00	0.2083
597.00	0.2070
598.00	0.2058
599.00	0.2046
600.00	0.2034
601.00	0.2022
602.00	0.2011
603.00	0.1998
604.00	0.1985
605.00	0.1974
606.00	0.1962
607.00	0.1950
608.00	0.1940
609.00	0.1930
610.00	0.1920
611.00	0.1909
612.00	0.1898
613.00	0.1886
614.00	0.1874
615.00	0.1865
616.00	0.1857
617.00	0.1851
618.00	0.1842
619.00	0.1834
620.00	0.1824
621.00	0.1814
622.00	0.1806
623.00	0.1802
624.00	0.1797
625.00	0.1792
626.00	0.1787
627.00	0.1779
628.00	0.1774
629.00	0.1771
630.00	0.1769
631.00	0.1765
632.00	0.1759
633.00	0.1750
634.00	0.1741
635.00	0.1734
636.00	0.1729
637.00	0.1726
638.00	0.1724
639.00	0.1722
640.00	0.1718
641.00	0.1715
642.00	0.1714
643.00	0.1712
644.00	0.1710
645.00	0.1708
646.00	0.1706
647.00	0.1704
648.00	0.1703
649.00	0.1703
650.00	0.1703
651.00	0.1704
652.00	0.1705
653.00	0.1705
654.00	0.1705
655.00	0.1707
656.00	0.1706
657.00	0.1706
658.00	0.1706
659.00	0.1707
660.00	0.1706
661.00	0.1706
662.00	0.1706
663.00	0.1706
664.00	0.1704
665.00	0.1705
666.00	0.1704
667.00	0.1704
668.00	0.1703
669.00	0.1704
670.00	0.1713
671.00	0.1718
672.00	0.1720
673.00	0.1725
674.00	0.1730
675.00	0.1724
676.00	0.1725
677.00	0.1726
678.00	0.1727
679.00	0.1729
680.00	0.1728
681.00	0.1732
682.00	0.1737
683.00	0.1741
684.00	0.1742
685.00	0.1747
686.00	0.1747
687.00	0.1748
688.00	0.1748
689.00	0.1750
690.00	0.1748
691.00	0.1754
692.00	0.1756
693.00	0.1758
694.00	0.1759
695.00	0.1763
696.00	0.1760
697.00	0.1760
698.00	0.1759
699.00	0.1759
700.00	0.1758
701.00	0.1761
702.00	0.1762
703.00	0.1766
704.00	0.1768
705.00	0.1770
706.00	0.1771
707.00	0.1770
708.00	0.1773
709.00	0.1776
710.00	0.1778
711.00	0.1780
712.00	0.1785
713.00	0.1785
714.00	0.1785
715.00	0.1785
716.00	0.1783
717.00	0.1783
718.00	0.1782
719.00	0.1783
720.00	0.1786
721.00	0.1788
722.00	0.1789
723.00	0.1789
724.00	0.1786
725.00	0.1785
726.00	0.1781
727.00	0.1781
728.00	0.1784
729.00	0.1787
730.00	0.1789
731.00	0.1798
732.00	0.1802
733.00	0.1805
734.00	0.1807
735.00	0.1811
736.00	0.1810
737.00	0.1811
738.00	0.1814
739.00	0.1818
740.00	0.1821
741.00	0.1824
742.00	0.1827
743.00	0.1830
744.00	0.1832
745.00	0.1835
746.00	0.1838
747.00	0.1836
748.00	0.1842
749.00	0.1844
750.00	0.1847
751.00	0.1851
752.00	0.1858
753.00	0.1858
754.00	0.1862
755.00	0.1865
756.00	0.1867
757.00	0.1868
758.00	0.1871
759.00	0.1871
760.00	0.1872
761.00	0.1875
762.00	0.1879
763.00	0.1885
764.00	0.1888
765.00	0.1891
766.00	0.1892
767.00	0.1891
768.00	0.1889
769.00	0.1888
770.00	0.1886
771.00	0.1883
772.00	0.1882
773.00	0.1880
774.00	0.1881
775.00	0.1880
776.00	0.1880
777.00	0.1882
778.00	0.1880
779.00	0.1873
780.00	0.1867
781.00	0.1861
782.00	0.1851
783.00	0.1844
784.00	0.1843
785.00	0.1844
786.00	0.1841
787.00	0.1840
788.00	0.1839
789.00	0.1837
790.00	0.1833
791.00	0.1825
792.00	0.1819
793.00	0.1812
794.00	0.1803
795.00	0.1794
796.00	0.1787
797.00	0.1775
798.00	0.1765
799.00	0.1756
800.00	0.1748
801.00	0.1740
802.00	0.1737
803.00	0.1728
804.00	0.1721
805.00	0.1715
806.00	0.1708
807.00	0.1700
808.00	0.1696
809.00	0.1689
810.00	0.1684
811.00	0.1680
812.00	0.1675
813.00	0.1670
814.00	0.1667
815.00	0.1665
816.00	0.1660
817.00	0.1659
818.00	0.1657
819.00	0.1655
820.00	0.1651
821.00	0.1651
822.00	0.1651
823.00	0.1649
824.00	0.1648
825.00	0.1650
826.00	0.1648
827.00	0.1648
828.00	0.1649
829.00	0.1649
830.00	0.1648
831.00	0.1651
832.00	0.1650
833.00	0.1652
834.00	0.1653
835.00	0.1655
836.00	0.1656
837.00	0.1656
838.00	0.1657
839.00	0.1658
840.00	0.1659
841.00	0.1663
842.00	0.1667
843.00	0.1670
844.00	0.1674
845.00	0.1677
846.00	0.1681
847.00	0.1685
848.00	0.1688
849.00	0.1690
850.00	0.1694
851.00	0.1696
852.00	0.1698
853.00	0.1701
854.00	0.1706
855.00	0.1705
856.00	0.1706
857.00	0.1708
858.00	0.1707
859.00	0.1703
860.00	0.1704
861.00	0.1703
862.00	0.1702
863.00	0.1701
864.00	0.1701
865.00	0.1700
866.00	0.1700
867.00	0.1700
868.00	0.1700
869.00	0.1696
870.00	0.1695
871.00	0.1694
872.00	0.1692
873.00	0.1689
874.00	0.1690
875.00	0.1689
876.00	0.1688
877.00	0.1684
878.00	0.1679
879.00	0.1673
880.00	0.1667
881.00	0.1660
882.00	0.1654
883.00	0.1646
884.00	0.1639
885.00	0.1631
886.00	0.1624
887.00	0.1616
888.00	0.1608
889.00	0.1599
890.00	0.1589
891.00	0.1580
892.00	0.1570
893.00	0.1562
894.00	0.1553
895.00	0.1545
896.00	0.1535
897.00	0.1525
898.00	0.1516
899.00	0.1508
900.00	0.1499
901.00	0.1490
902.00	0.1482
903.00	0.1473
904.00	0.1465
905.00	0.1456
906.00	0.1448
907.00	0.1441
908.00	0.1433
909.00	0.1424
910.00	0.1415
911.00	0.1407
912.00	0.1398
913.00	0.1391
914.00	0.1383
915.00	0.1376
916.00	0.1368
917.00	0.1361
918.00	0.1354
919.00	0.1348
920.00	0.1342
921.00	0.1334
922.00	0.1326
923.00	0.1317
924.00	0.1308
925.00	0.1301
926.00	0.1294
927.00	0.1288
928.00	0.1282
929.00	0.1274
930.00	0.1267
931.00	0.1259
932.00	0.1252
933.00	0.1244
934.00	0.1238
935.00	0.1231
936.00	0.1224
937.00	0.1219
938.00	0.1215
939.00	0.1207
940.00	0.1200
941.00	0.1193
942.00	0.1185
943.00	0.1177
944.00	0.1170
945.00	0.1164
946.00	0.1158
947.00	0.1151
948.00	0.1147
949.00	0.1141
950.00	0.1133
951.00	0.1128
952.00	0.1122
953.00	0.1114
954.00	0.1106
955.00	0.1101
956.00	0.1094
957.00	0.1088
958.00	0.1082
959.00	0.1077
960.00	0.1071
961.00	0.1065
962.00	0.1059
963.00	0.1053
964.00	0.1047
965.00	0.1039
966.00	0.1033
967.00	0.1028
968.00	0.1020
969.00	0.1014
970.00	0.1010
971.00	0.1005
972.00	0.0998
973.00	0.0993
974.00	0.0987
975.00	0.0980
976.00	0.0973
977.00	0.0968
978.00	0.0962
979.00	0.0959
980.00	0.0951
981.00	0.0946
982.00	0.0941
983.00	0.0935
984.00	0.0928
985.00	0.0924
986.00	0.0920
987.00	0.0912
988.00	0.0909
989.00	0.0902
990.00	0.0897
991.00	0.0890
992.00	0.0885
993.00	0.0880
994.00	0.0875
995.00	0.0872
996.00	0.0866
997.00	0.0861
998.00	0.0854
999.00	0.0848
1000.00	0.0841
1001.00	0.0834
1002.00	0.0830
1003.00	0.0826
1004.00	0.0820
1005.00	0.0816
1006.00	0.0813
1007.00	0.0807
1008.00	0.0802
1009.00	0.0796
1010.00	0.0792
1011.00	0.0786
1012.00	0.0782
1013.00	0.0778
1014.00	0.0772
1015.00	0.0766
1016.00	0.0760
1017.00	0.0758
1018.00	0.0753
1019.00	0.0750
1020.00	0.0746
1021.00	0.0742
1022.00	0.0736
1023.00	0.0731
1024.00	0.0727
1025.00	0.0722
1026.00	0.0717
1027.00	0.0713
1028.00	0.0709
1029.00	0.0702
1030.00	0.0698
1031.00	0.0693
1032.00	0.0688
1033.00	0.0683
1034.00	0.0682
1035.00	0.0679
1036.00	0.0674
1037.00	0.0670
1038.00	0.0665
1039.00	0.0660
1040.00	0.0656
1041.00	0.0654
1042.00	0.0651
1043.00	0.0647
1044.00	0.0641
1045.00	0.0635
1046.00	0.0631
1047.00	0.0628
1048.00	0.0623
1049.00	0.0623
1050.00	0.0622
1051.00	0.0617
1052.00	0.0614
1053.00	0.0612
1054.00	0.0608
1055.00	0.0606
1056.00	0.0603
1057.00	0.0599
1058.00	0.0602
1059.00	0.0599
1060.00	0.0596
1061.00	0.0594
1062.00	0.0591
1063.00	0.0582
1064.00	0.0579
1065.00	0.0576
1066.00	0.0572
1067.00	0.0572
1068.00	0.0571
1069.00	0.0568
1070.00	0.0563
1071.00	0.0561
1072.00	0.0555
1073.00	0.0551
1074.00	0.0549
1075.00	0.0546
1076.00	0.0543
1077.00	0.0540
1078.00	0.0538
1079.00	0.0535
1080.00	0.0534
1081.00	0.0532
1082.00	0.0530
1083.00	0.0528
1084.00	0.0525
1085.00	0.0524
1086.00	0.0522
1087.00	0.0520
1088.00	0.0516
1089.00	0.0516
1090.00	0.0513
1091.00	0.0514
1092.00	0.0513
1093.00	0.0511
1094.00	0.0508
1095.00	0.0506
1096.00	0.0503
1097.00	0.0501
1098.00	0.0502
1099.00	0.0502
1100.00	0.0502
1101.00	0.0500
1102.00	0.0499
1103.00	0.0497
1104.00	0.0494
1105.00	0.0497
1106.00	0.0491
1107.00	0.0488
1108.00	0.0487
1109.00	0.0484
1110.00	0.0477
1111.00	0.0481
1112.00	0.0479
1113.00	0.0478
1114.00	0.0477
1115.00	0.0475
1116.00	0.0474
1117.00	0.0472
1118.00	0.0470
1119.00	0.0469
1120.00	0.0468
1121.00	0.0464
1122.00	0.0465
1123.00	0.0464
1124.00	0.0463
1125.00	0.0461
1126.00	0.0462
1127.00	0.0460
1128.00	0.0458
1129.00	0.0456
1130.00	0.0454
1131.00	0.0454
1132.00	0.0453
1133.00	0.0454
1134.00	0.0452
1135.00	0.0452
1136.00	0.0452
1137.00	0.0451
1138.00	0.0451
1139.00	0.0450
1140.00	0.0450
1141.00	0.0449
1142.00	0.0448
1143.00	0.0445
1144.00	0.0449
1145.00	0.0446
1146.00	0.0446
1147.00	0.0447
1148.00	0.0447
1149.00	0.0445
1150.00	0.0444
1151.00	0.0443
1152.00	0.0441
1153.00	0.0440
1154.00	0.0438
1155.00	0.0439
1156.00	0.0440
1157.00	0.0440
1158.00	0.0441
1159.00	0.0442
1160.00	0.0440
1161.00	0.0439
1162.00	0.0438
1163.00	0.0438
1164.00	0.0438
1165.00	0.0436
1166.00	0.0436
1167.00	0.0432
1168.00	0.0428
1169.00	0.0429
1170.00	0.0432
1171.00	0.0433
1172.00	0.0435
1173.00	0.0440
1174.00	0.0437
1175.00	0.0437
1176.00	0.0436
1177.00	0.0437
1178.00	0.0435
1179.00	0.0438
1180.00	0.0438
1181.00	0.0439
1182.00	0.0438
1183.00	0.0437
1184.00	0.0436
1185.00	0.0434
1186.00	0.0434
1187.00	0.0436
1188.00	0.0438
1189.00	0.0437
1190.00	0.0438
1191.00	0.0439
1192.00	0.0438
1193.00	0.0438
1194.00	0.0441
1195.00	0.0443
1196.00	0.0441
1197.00	0.0441
1198.00	0.0440
1199.00	0.0437
1200.00	0.0435
1201.00	0.0436
1202.00	0.0437
1203.00	0.0441
1204.00	0.0443
1205.00	0.0443
1206.00	0.0444
1207.00	0.0443
1208.00	0.0442
1209.00	0.0440
1210.00	0.0441
1211.00	0.0441
1212.00	0.0443
1213.00	0.0442
1214.00	0.0438
1215.00	0.0437
1216.00	0.0438
1217.00	0.0439
1218.00	0.0439
1219.00	0.0444
1220.00	0.0445
1221.00	0.0447
1222.00	0.0446
1223.00	0.0447
1224.00	0.0449
1225.00	0.0451
1226.00	0.0451
1227.00	0.0451
1228.00	0.0451
1229.00	0.0448
1230.00	0.0448
1231.00	0.0447
1232.00	0.0448
1233.00	0.0449
1234.00	0.0451
1235.00	0.0451
1236.00	0.0454
1237.00	0.0455
1238.00	0.0455
1239.00	0.0456
1240.00	0.0455
1241.00	0.0452
1242.00	0.0453
1243.00	0.0447
1244.00	0.0449
1245.00	0.0455
1246.00	0.0457
1247.00	0.0457
1248.00	0.0465
1249.00	0.0462
1250.00	0.0459
1251.00	0.0460
1252.00	0.0460
1253.00	0.0459
1254.00	0.0460
1255.00	0.0460
1256.00	0.0459
1257.00	0.0460
1258.00	0.0463
1259.00	0.0464
1260.00	0.0463
1261.00	0.0465
1262.00	0.0465
1263.00	0.0464
1264.00	0.0464
1265.00	0.0467
1266.00	0.0468
1267.00	0.0468
1268.00	0.0469
1269.00	0.0471
1270.00	0.0473
1271.00	0.0473
1272.00	0.0475
1273.00	0.0474
1274.00	0.0475
1275.00	0.0475
1276.00	0.0477
1277.00	0.0477
1278.00	0.0478
1279.00	0.0479
1280.00	0.0479
1281.00	0.0479
1282.00	0.0480
1283.00	0.0482
1284.00	0.0483
1285.00	0.0485
1286.00	0.0483
1287.00	0.0484
1288.00	0.0484
1289.00	0.0486
1290.00	0.0481
1291.00	0.0481
1292.00	0.0483
1293.00	0.0484
1294.00	0.0482
1295.00	0.0490
1296.00	0.0493
1297.00	0.0492
1298.00	0.0494
1299.00	0.0498
1300.00	0.0498
1301.00	0.0496
1302.00	0.0503
1303.00	0.0506
1304.00	0.0506
1305.00	0.0506
1306.00	0.0509
1307.00	0.0505
1308.00	0.0503
1309.00	0.0504
1310.00	0.0505
1311.00	0.0506
1312.00	0.0506
1313.00	0.0507
1314.00	0.0508
1315.00	0.0509
1316.00	0.0511
1317.00	0.0512
1318.00	0.0513
1319.00	0.0514
1320.00	0.0518
1321.00	0.0518
1322.00	0.0519
1323.00	0.0521
1324.00	0.0521
1325.00	0.0520
1326.00	0.0519
1327.00	0.0520
1328.00	0.0520
1329.00	0.0520
1330.00	0.0521
1331.00	0.0522
1332.00	0.0524
1333.00	0.0525
1334.00	0.0528
1335.00	0.0527
1336.00	0.0531
1337.00	0.0533
1338.00	0.0533
1339.00	0.0533
1340.00	0.0535
1341.00	0.0536
1342.00	0.0536
1343.00	0.0540
1344.00	0.0543
1345.00	0.0544
1346.00	0.0544
1347.00	0.0545
1348.00	0.0545
1349.00	0.0549
1350.00	0.0551
1351.00	0.0562
1352.00	0.0565
1353.00	0.0566
1354.00	0.0566
1355.00	0.0566
1356.00	0.0560
1357.00	0.0560
1358.00	0.0562
1359.00	0.0564
1360.00	0.0567
1361.00	0.0567
1362.00	0.0569
1363.00	0.0569
1364.00	0.0570
1365.00	0.0573
1366.00	0.0572
1367.00	0.0576
1368.00	0.0579
1369.00	0.0581
1370.00	0.0580
1371.00	0.0584
1372.00	0.0585
1373.00	0.0585
1374.00	0.0587
1375.00	0.0589
1376.00	0.0591
1377.00	0.0592
1378.00	0.0596
1379.00	0.0597
1380.00	0.0601
1381.00	0.0601
1382.00	0.0605
1383.00	0.0607
1384.00	0.0607
1385.00	0.0608
1386.00	0.0609
1387.00	0.0608
1388.00	0.0609
1389.00	0.0613
1390.00	0.0613
1391.00	0.0617
1392.00	0.0621
1393.00	0.0624
1394.00	0.0623
1395.00	0.0625
1396.00	0.0627
1397.00	0.0627
1398.00	0.0630
1399.00	0.0633
1400.00	0.0636
1401.00	0.0636
1402.00	0.0638
1403.00	0.0640
1404.00	0.0643
1405.00	0.0645
1406.00	0.0647
1407.00	0.0651
1408.00	0.0653
1409.00	0.0654
1410.00	0.0655
1411.00	0.0656
1412.00	0.0655
1413.00	0.0659
1414.00	0.0660
1415.00	0.0664
1416.00	0.0669
1417.00	0.0670
1418.00	0.0671
1419.00	0.0674
1420.00	0.0673
1421.00	0.0674
1422.00	0.0678
1423.00	0.0679
1424.00	0.0681
1425.00	0.0683
1426.00	0.0686
1427.00	0.0689
1428.00	0.0690
1429.00	0.0691
1430.00	0.0696
1431.00	0.0696
1432.00	0.0697
1433.00	0.0700
1434.00	0.0702
1435.00	0.0703
1436.00	0.0705
1437.00	0.0709
1438.00	0.0712
1439.00	0.0714
1440.00	0.0714
1441.00	0.0716
1442.00	0.0715
1443.00	0.0710
1444.00	0.0712
1445.00	0.0715
1446.00	0.0716
1447.00	0.0719
1448.00	0.0727
1449.00	0.0729
1450.00	0.0732
1451.00	0.0734
1452.00	0.0736
1453.00	0.0737
1454.00	0.0737
1455.00	0.0740
1456.00	0.0742
1457.00	0.0746
1458.00	0.0750
1459.00	0.0751
1460.00	0.0752
1461.00	0.0755
1462.00	0.0757
1463.00	0.0759
1464.00	0.0761
1465.00	0.0764
1466.00	0.0767
1467.00	0.0768
1468.00	0.0770
1469.00	0.0772
1470.00	0.0776
1471.00	0.0781
1472.00	0.0782
1473.00	0.0784
1474.00	0.0787
1475.00	0.0787
1476.00	0.0783
1477.00	0.0786
1478.00	0.0786
1479.00	0.0789
1480.00	0.0791
1481.00	0.0795
1482.00	0.0797
1483.00	0.0801
1484.00	0.0801
1485.00	0.0805
1486.00	0.0808
1487.00	0.0809
1488.00	0.0811
1489.00	0.0815
1490.00	0.0817
1491.00	0.0818
1492.00	0.0821
1493.00	0.0821
1494.00	0.0823
1495.00	0.0826
1496.00	0.0830
1497.00	0.0834
1498.00	0.0835
1499.00	0.0837
1500.00	0.0838
1501.00	0.0839
1502.00	0.0842
1503.00	0.0846
1504.00	0.0847
1505.00	0.0851
1506.00	0.0854
1507.00	0.0856
1508.00	0.0859
1509.00	0.0861
1510.00	0.0862
1511.00	0.0864
1512.00	0.0865
1513.00	0.0865
1514.00	0.0869
1515.00	0.0870
1516.00	0.0872
1517.00	0.0877
1518.00	0.0880
1519.00	0.0881
1520.00	0.0880
1521.00	0.0884
1522.00	0.0884
1523.00	0.0887
1524.00	0.0890
1525.00	0.0896
1526.00	0.0898
1527.00	0.0900
1528.00	0.0903
1529.00	0.0905
1530.00	0.0907
1531.00	0.0910
1532.00	0.0913
1533.00	0.0915
1534.00	0.0918
1535.00	0.0921
1536.00	0.0921
1537.00	0.0923
1538.00	0.0924
1539.00	0.0926
1540.00	0.0928
1541.00	0.0931
1542.00	0.0933
1543.00	0.0939
1544.00	0.0941
1545.00	0.0944
1546.00	0.0948
1547.00	0.0949
1548.00	0.0950
1549.00	0.0952
1550.00	0.0954
1551.00	0.0956
1552.00	0.0960
1553.00	0.0962
1554.00	0.0966
1555.00	0.0967
1556.00	0.0969
1557.00	0.0972
1558.00	0.0974
1559.00	0.0975
1560.00	0.0978
1561.00	0.0982
1562.00	0.0982
1563.00	0.0985
1564.00	0.0988
1565.00	0.0991
1566.00	0.0991
1567.00	0.0996
1568.00	0.0998
1569.00	0.1000
1570.00	0.1002
1571.00	0.1006
1572.00	0.1007
1573.00	0.1008
1574.00	0.1012
1575.00	0.1012
1576.00	0.1015
1577.00	0.1019
1578.00	0.1023
1579.00	0.1023
1580.00	0.1027
1581.00	0.1030
1582.00	0.1031
1583.00	0.1034
1584.00	0.1037
1585.00	0.1041
1586.00	0.1042
1587.00	0.1047
1588.00	0.1047
1589.00	0.1050
1590.00	0.1052
1591.00	0.1054
1592.00	0.1056
1593.00	0.1059
1594.00	0.1061
1595.00	0.1063
1596.00	0.1067
1597.00	0.1069
1598.00	0.1072
1599.00	0.1074
1600.00	0.1080
1601.00	0.1081
1602.00	0.1084
1603.00	0.1086
1604.00	0.1089
1605.00	0.1091
1606.00	0.1094
1607.00	0.1096
1608.00	0.1098
1609.00	0.1102
1610.00	0.1103
1611.00	0.1104
1612.00	0.1103
1613.00	0.1107
1614.00	0.1108
1615.00	0.1110
1616.00	0.1114
1617.00	0.1121
1618.00	0.1122
1619.00	0.1124
1620.00	0.1128
1621.00	0.1128
1622.00	0.1132
1623.00	0.1132
1624.00	0.1137
1625.00	0.1142
1626.00	0.1145
1627.00	0.1146
1628.00	0.1148
1629.00	0.1148
1630.00	0.1147
1631.00	0.1151
1632.00	0.1152
1633.00	0.1155
1634.00	0.1155
1635.00	0.1158
1636.00	0.1159
1637.00	0.1161
1638.00	0.1164
1639.00	0.1164
1640.00	0.1165
1641.00	0.1168
1642.00	0.1167
1643.00	0.1160
1644.00	0.1165
1645.00	0.1166
1646.00	0.1163
1647.00	0.1166
1648.00	0.1172
1649.00	0.1171
1650.00	0.1172
1651.00	0.1173
1652.00	0.1172
1653.00	0.1172
1654.00	0.1172
1655.00	0.1172
1656.00	0.1172
1657.00	0.1172
1658.00	0.1172
1659.00	0.1173
1660.00	0.1174
1661.00	0.1178
1662.00	0.1180
1663.00	0.1183
1664.00	0.1184
1665.00	0.1188
1666.00	0.1188
1667.00	0.1191
1668.00	0.1193
1669.00	0.1194
1670.00	0.1196
1671.00	0.1197
1672.00	0.1199
1673.00	0.1202
1674.00	0.1206
1675.00	0.1209
1676.00	0.1212
1677.00	0.1213
1678.00	0.1214
1679.00	0.1215
1680.00	0.1216
1681.00	0.1219
1682.00	0.1222
1683.00	0.1225
1684.00	0.1228
1685.00	0.1230
1686.00	0.1230
1687.00	0.1231
1688.00	0.1232
1689.00	0.1235
1690.00	0.1236
1691.00	0.1236
1692.00	0.1237
1693.00	0.1237
1694.00	0.1237
1695.00	0.1239
1696.00	0.1243
1697.00	0.1247
1698.00	0.1251
1699.00	0.1255
1700.00	0.1257
1701.00	0.1259
1702.00	0.1261
1703.00	0.1261
1704.00	0.1260
1705.00	0.1262
1706.00	0.1264
1707.00	0.1266
1708.00	0.1269
1709.00	0.1272
1710.00	0.1276
1711.00	0.1280
1712.00	0.1284
1713.00	0.1287
1714.00	0.1291
1715.00	0.1292
1716.00	0.1293
1717.00	0.1293
1718.00	0.1292
1719.00	0.1293
1720.00	0.1296
1721.00	0.1297
1722.00	0.1299
1723.00	0.1302
1724.00	0.1302
1725.00	0.1304
1726.00	0.1306
1727.00	0.1306
1728.00	0.1308
1729.00	0.1311
1730.00	0.1311
1731.00	0.1314
1732.00	0.1316
1733.00	0.1318
1734.00	0.1319
1735.00	0.1321
1736.00	0.1321
1737.00	0.1324
1738.00	0.1324
1739.00	0.1327
1740.00	0.1330
1741.00	0.1335
1742.00	0.1336
1743.00	0.1339
1744.00	0.1341
1745.00	0.1343
1746.00	0.1343
1747.00	0.1344
1748.00	0.1345
1749.00	0.1345
1750.00	0.1349
1751.00	0.1350
1752.00	0.1354
1753.00	0.1356
1754.00	0.1359
1755.00	0.1360
1756.00	0.1362
1757.00	0.1363
1758.00	0.1363
1759.00	0.1362
1760.00	0.1363
1761.00	0.1363
1762.00	0.1365
1763.00	0.1369
1764.00	0.1374
1765.00	0.1377
1766.00	0.1381
1767.00	0.1381
1768.00	0.1383
1769.00	0.1382
1770.00	0.1383
1771.00	0.1384
1772.00	0.1387
1773.00	0.1389
1774.00	0.1392
1775.00	0.1394
1776.00	0.1396
1777.00	0.1395
1778.00	0.1395
1779.00	0.1394
1780.00	0.1394
1781.00	0.1396
1782.00	0.1398
1783.00	0.1402
1784.00	0.1405
1785.00	0.1409
1786.00	0.1411
1787.00	0.1415
1788.00	0.1415
1789.00	0.1416
1790.00	0.1417
1791.00	0.1418
1792.00	0.1418
1793.00	0.1420
1794.00	0.1423
1795.00	0.1425
1796.00	0.1429
1797.00	0.1431
1798.00	0.1432
1799.00	0.1431
1800.00	0.1432
1801.00	0.1432
1802.00	0.1433
1803.00	0.1434
1804.00	0.1436
1805.00	0.1439
1806.00	0.1440
1807.00	0.1444
1808.00	0.1445
1809.00	0.1447
1810.00	0.1449
1811.00	0.1450
1812.00	0.1450
1813.00	0.1452
1814.00	0.1452
1815.00	0.1451
1816.00	0.1450
1817.00	0.1452
1818.00	0.1454
1819.00	0.1457
1820.00	0.1458
1821.00	0.1462
1822.00	0.1465
1823.00	0.1468
1824.00	0.1469
1825.00	0.1472
1826.00	0.1475
1827.00	0.1475
1828.00	0.1477
1829.00	0.1481
1830.00	0.1483
1831.00	0.1485
1832.00	0.1489
1833.00	0.1489
1834.00	0.1489
1835.00	0.1489
1836.00	0.1490
1837.00	0.1488
1838.00	0.1488
1839.00	0.1490
1840.00	0.1491
1841.00	0.1491
1842.00	0.1494
1843.00	0.1495
1844.00	0.1491
1845.00	0.1489
1846.00	0.1487
1847.00	0.1482
1848.00	0.1482
1849.00	0.1484
1850.00	0.1486
1851.00	0.1488
1852.00	0.1491
1853.00	0.1494
1854.00	0.1498
1855.00	0.1501
1856.00	0.1505
1857.00	0.1510
1858.00	0.1512
1859.00	0.1514
1860.00	0.1518
1861.00	0.1519
1862.00	0.1521
1863.00	0.1524
1864.00	0.1527
1865.00	0.1526
1866.00	0.1525
1867.00	0.1526
1868.00	0.1525
1869.00	0.1524
1870.00	0.1522
1871.00	0.1524
1872.00	0.1521
1873.00	0.1520
1874.00	0.1522
1875.00	0.1526
1876.00	0.1527
1877.00	0.1530
1878.00	0.1529
1879.00	0.1528
1880.00	0.1528
1881.00	0.1528
1882.00	0.1527
1883.00	0.1529
1884.00	0.1530
1885.00	0.1529
1886.00	0.1529
1887.00	0.1531
1888.00	0.1530
1889.00	0.1531
1890.00	0.1534
1891.00	0.1536
1892.00	0.1536
1893.00	0.1540
1894.00	0.1542
1895.00	0.1543
1896.00	0.1547
1897.00	0.1551
1898.00	0.1555
1899.00	0.1559
1900.00	0.1565
1901.00	0.1569
1902.00	0.1572
1903.00	0.1572
1904.00	0.1574
1905.00	0.1572
1906.00	0.1569
1907.00	0.1567
1908.00	0.1567
1909.00	0.1565
1910.00	0.1564
1911.00	0.1563
1912.00	0.1565
1913.00	0.1564
1914.00	0.1564
1915.00	0.1566
1916.00	0.1567
1917.00	0.1568
1918.00	0.1569
1919.00	0.1569
1920.00	0.1569
1921.00	0.1569
1922.00	0.1570
1923.00	0.1572
1924.00	0.1574
1925.00	0.1576
1926.00	0.1579
1927.00	0.1580
1928.00	0.1581
1929.00	0.1581
1930.00	0.1583
1931.00	0.1582
1932.00	0.1583
1933.00	0.1584
1934.00	0.1585
1935.00	0.1586
1936.00	0.1587
1937.00	0.1588
1938.00	0.1591
1939.00	0.1591
1940.00	0.1592
1941.00	0.1593
1942.00	0.1593
1943.00	0.1591
1944.00	0.1592
1945.00	0.1592
1946.00	0.1594
1947.00	0.1595
1948.00	0.1597
1949.00	0.1596
1950.00	0.1595
1951.00	0.1592
1952.00	0.1590
1953.00	0.1591
1954.00	0.1593
1955.00	0.1594
1956.00	0.1597
1957.00	0.1602
1958.00	0.1604
1959.00	0.1606
1960.00	0.1609
1961.00	0.1612
1962.00	0.1612
1963.00	0.1612
1964.00	0.1610
1965.00	0.1610
1966.00	0.1611
1967.00	0.1613
1968.00	0.1615
1969.00	0.1618
1970.00	0.1619
1971.00	0.1619
1972.00	0.1618
1973.00	0.1617
1974.00	0.1617
1975.00	0.1615
1976.00	0.1616
1977.00	0.1617
1978.00	0.1617
1979.00	0.1619
1980.00	0.1620
1981.00	0.1620
1982.00	0.1621
1983.00	0.1623
1984.00	0.1623
1985.00	0.1625
1986.00	0.1625
1987.00	0.1621
1988.00	0.1621
1989.00	0.1621
1990.00	0.1620
1991.00	0.1621
1992.00	0.1627
1993.00	0.1629
1994.00	0.1629
1995.00	0.1630
1996.00	0.1632
1997.00	0.1632
1998.00	0.1631
1999.00	0.1632
2000.00	0.1635
2001.00	0.1638
2002.00	0.1640
2003.00	0.1641
2004.00	0.1645
2005.00	0.1644
2006.00	0.1644
2007.00	0.1642
2008.00	0.1645
2009.00	0.1644
2010.00	0.1644
2011.00	0.1642
2012.00	0.1646
2013.00	0.1647
2014.00	0.1645
2015.00	0.1648
2016.00	0.1649
2017.00	0.1647
2018.00	0.1646
2019.00	0.1647
2020.00	0.1646
2021.00	0.1644
2022.00	0.1644
2023.00	0.1644
2024.00	0.1643
2025.00	0.1642
2026.00	0.1644
2027.00	0.1642
2028.00	0.1640
2029.00	0.1640
2030.00	0.1641
2031.00	0.1641
2032.00	0.1643
2033.00	0.1645
2034.00	0.1645
2035.00	0.1648
2036.00	0.1650
2037.00	0.1651
2038.00	0.1651
2039.00	0.1652
2040.00	0.1650
2041.00	0.1650
2042.00	0.1649
2043.00	0.1649
2044.00	0.1653
2045.00	0.1656
2046.00	0.1659
2047.00	0.1659
2048.00	0.1657
2049.00	0.1657
2050.00	0.1656
2051.00	0.1656
2052.00	0.1658
2053.00	0.1663
2054.00	0.1663
2055.00	0.1666
2056.00	0.1668
2057.00	0.1669
2058.00	0.1669
2059.00	0.1670
2060.00	0.1669
2061.00	0.1668
2062.00	0.1667
2063.00	0.1666
2064.00	0.1663
2065.00	0.1662
2066.00	0.1662
2067.00	0.1662
2068.00	0.1665
2069.00	0.1668
2070.00	0.1669
2071.00	0.1668
2072.00	0.1670
2073.00	0.1668
2074.00	0.1667
2075.00	0.1666
2076.00	0.1667
2077.00	0.1665
2078.00	0.1669
2079.00	0.1672
2080.00	0.1672
2081.00	0.1673
2082.00	0.1674
2083.00	0.1670
2084.00	0.1669
2085.00	0.1671
2086.00	0.1676
2087.00	0.1675
2088.00	0.1676
2089.00	0.1676
2090.00	0.1678
2091.00	0.1674
2092.00	0.1672
2093.00	0.1672
2094.00	0.1672
2095.00	0.1666
2096.00	0.1666
2097.00	0.1665
2098.00	0.1668
2099.00	0.1667
2100.00	0.1671
2101.00	0.1674
2102.00	0.1677
2103.00	0.1678
2104.00	0.1679
2105.00	0.1678
2106.00	0.1675
2107.00	0.1674
2108.00	0.1672
2109.00	0.1674
2110.00	0.1676
2111.00	0.1679
2112.00	0.1681
2113.00	0.1682
2114.00	0.1682
2115.00	0.1681
2116.00	0.1680
2117.00	0.1678
2118.00	0.1678
2119.00	0.1679
2120.00	0.1679
2121.00	0.1676
2122.00	0.1677
2123.00	0.1678
2124.00	0.1676
2125.00	0.1676
2126.00	0.1680
2127.00	0.1680
2128.00	0.1679
2129.00	0.1678
2130.00	0.1677
2131.00	0.1675
2132.00	0.1676
2133.00	0.1679
2134.00	0.1682
2135.00	0.1685
2136.00	0.1685
2137.00	0.1686
2138.00	0.1684
2139.00	0.1682
2140.00	0.1680
2141.00	0.1681
2142.00	0.1679
2143.00	0.1682
2144.00	0.1684
2145.00	0.1686
2146.00	0.1687
2147.00	0.1686
2148.00	0.1683
2149.00	0.1678
2150.00	0.1675
2151.00	0.1672
2152.00	0.1675
2153.00	0.1675
2154.00	0.1675
2155.00	0.1674
2156.00	0.1675
2157.00	0.1672
2158.00	0.1675
2159.00	0.1677
2160.00	0.1677
2161.00	0.1677
2162.00	0.1679
2163.00	0.1676
2164.00	0.1676
2165.00	0.1680
2166.00	0.1682
2167.00	0.1683
2168.00	0.1685
2169.00	0.1685
2170.00	0.1682
2171.00	0.1680
2172.00	0.1680
2173.00	0.1679
2174.00	0.1681
2175.00	0.1682
2176.00	0.1683
2177.00	0.1684
2178.00	0.1686
2179.00	0.1684
2180.00	0.1686
2181.00	0.1686
2182.00	0.1686
2183.00	0.1681
2184.00	0.1681
2185.00	0.1678
2186.00	0.1675
2187.00	0.1673
2188.00	0.1676
2189.00	0.1679
2190.00	0.1679
2191.00	0.1681
2192.00	0.1682
2193.00	0.1681
2194.00	0.1673
2195.00	0.1670
2196.00	0.1668
2197.00	0.1671
2198.00	0.1670
2199.00	0.1672
2200.00	0.1672
2201.00	0.1674
2202.00	0.1670
2203.00	0.1668
2204.00	0.1671
2205.00	0.1667
2206.00	0.1665
2207.00	0.1662
2208.00	0.1661
2209.00	0.1661
2210.00	0.1665
2211.00	0.1667
2212.00	0.1668
2213.00	0.1666
2214.00	0.1663
2215.00	0.1664
2216.00	0.1662
2217.00	0.1661
2218.00	0.1665
2219.00	0.1667
2220.00	0.1665
2221.00	0.1664
2222.00	0.1667
2223.00	0.1665
2224.00	0.1663
2225.00	0.1663
2226.00	0.1667
2227.00	0.1664
2228.00	0.1666
2229.00	0.1665
2230.00	0.1665
2231.00	0.1664
2232.00	0.1666
2233.00	0.1664
2234.00	0.1664
2235.00	0.1667
2236.00	0.1666
2237.00	0.1664
2238.00	0.1663
2239.00	0.1666
2240.00	0.1664
2241.00	0.1666
2242.00	0.1665
2243.00	0.1668
2244.00	0.1664
2245.00	0.1663
2246.00	0.1662
2247.00	0.1664
2248.00	0.1663
2249.00	0.1662
2250.00	0.1663
2251.00	0.1662
2252.00	0.1661
2253.00	0.1659
2254.00	0.1658
2255.00	0.1659
2256.00	0.1662
2257.00	0.1665
2258.00	0.1667
2259.00	0.1670
2260.00	0.1671
2261.00	0.1671
2262.00	0.1670
2263.00	0.1670
2264.00	0.1671
2265.00	0.1671
2266.00	0.1669
2267.00	0.1667
2268.00	0.1666
2269.00	0.1666
2270.00	0.1665
2271.00	0.1664
2272.00	0.1664
2273.00	0.1663
2274.00	0.1662
2275.00	0.1663
2276.00	0.1663
2277.00	0.1667
2278.00	0.1667
2279.00	0.1666
2280.00	0.1665
2281.00	0.1664
2282.00	0.1660
2283.00	0.1660
2284.00	0.1659
2285.00	0.1660
2286.00	0.1660
2287.00	0.1661
2288.00	0.1662
2289.00	0.1666
2290.00	0.1667
2291.00	0.1670
2292.00	0.1672
2293.00	0.1673
2294.00	0.1670
2295.00	0.1671
2296.00	0.1668
2297.00	0.1667
2298.00	0.1666
2299.00	0.1667
2300.00	0.1663
2301.00	0.1664
2302.00	0.1664
2303.00	0.1663
2304.00	0.1661
2305.00	0.1662
2306.00	0.1664
2307.00	0.1663
2308.00	0.1663
2309.00	0.1666
2310.00	0.1664
2311.00	0.1665
2312.00	0.1665
2313.00	0.1665
2314.00	0.1662
2315.00	0.1661
2316.00	0.1659
2317.00	0.1658
2318.00	0.1658
2319.00	0.1659
2320.00	0.1660
2321.00	0.1661
2322.00	0.1662
2323.00	0.1663
2324.00	0.1662
2325.00	0.1660
2326.00	0.1658
2327.00	0.1656
2328.00	0.1653
2329.00	0.1654
2330.00	0.1656
2331.00	0.1657
2332.00	0.1659
2333.00	0.1662
2334.00	0.1662
2335.00	0.1660
2336.00	0.1658
2337.00	0.1654
2338.00	0.1648
2339.00	0.1646
2340.00	0.1644
2341.00	0.1643
2342.00	0.1645
2343.00	0.1647
2344.00	0.1650
2345.00	0.1650
2346.00	0.1650
2347.00	0.1648
2348.00	0.1647
2349.00	0.1642
2350.00	0.1643
2351.00	0.1644
2352.00	0.1648
2353.00	0.1651
2354.00	0.1655
2355.00	0.1655
2356.00	0.1657
2357.00	0.1655
2358.00	0.1652
2359.00	0.1653
2360.00	0.1652
2361.00	0.1651
2362.00	0.1650
2363.00	0.1652
2364.00	0.1647
2365.00	0.1643
2366.00	0.1645
2367.00	0.1643
2368.00	0.1642
2369.00	0.1644
2370.00	0.1648
2371.00	0.1647
2372.00	0.1647
2373.00	0.1646
2374.00	0.1646
2375.00	0.1645
2376.00	0.1638
2377.00	0.1638
2378.00	0.1636
2379.00	0.1634
2380.00	0.1632
2381.00	0.1635
2382.00	0.1634
2383.00	0.1637
2384.00	0.1638
2385.00	0.1640
2386.00	0.1642
2387.00	0.1645
2388.00	0.1642
2389.00	0.1641
2390.00	0.1643
2391.00	0.1645
2392.00	0.1641
2393.00	0.1640
2394.00	0.1640
2395.00	0.1641
2396.00	0.1637
2397.00	0.1639
2398.00	0.1642
2399.00	0.1645
2400.00	0.1644
2401.00	0.1644
2402.00	0.1641
2403.00	0.1640
2404.00	0.1637
2405.00	0.1638
2406.00	0.1642
2407.00	0.1643
2408.00	0.1641
2409.00	0.1640
2410.00	0.1640
2411.00	0.1634
2412.00	0.1632
2413.00	0.1632
2414.00	0.1632
2415.00	0.1631
2416.00	0.1631
2417.00	0.1634
2418.00	0.1632
2419.00	0.1631
2420.00	0.1630
2421.00	0.1627
2422.00	0.1627
2423.00	0.1627
2424.00	0.1627
2425.00	0.1625
2426.00	0.1625
2427.00	0.1624
2428.00	0.1624
2429.00	0.1621
2430.00	0.1619
2431.00	0.1617
2432.00	0.1616
2433.00	0.1613
2434.00	0.1616
2435.00	0.1622
2436.00	0.1623
2437.00	0.1622
2438.00	0.1622
2439.00	0.1621
2440.00	0.1619
2441.00	0.1620
2442.00	0.1621
2443.00	0.1624
2444.00	0.1620
2445.00	0.1620
2446.00	0.1618
2447.00	0.1618
2448.00	0.1615
2449.00	0.1616
2450.00	0.1612
2451.00	0.1615
2452.00	0.1617
2453.00	0.1619
2454.00	0.1617
2455.00	0.1617
2456.00	0.1614
2457.00	0.1611
2458.00	0.1605
2459.00	0.1607
2460.00	0.1610
2461.00	0.1610
2462.00	0.1607
2463.00	0.1607
2464.00	0.1607
2465.00	0.1606
2466.00	0.1607
2467.00	0.1607
2468.00	0.1611
2469.00	0.1611
2470.00	0.1608
2471.00	0.1604
2472.00	0.1606
2473.00	0.1604
2474.00	0.1605
2475.00	0.1606
2476.00	0.1606
2477.00	0.1604
2478.00	0.1601
2479.00	0.1599
2480.00	0.1595
2481.00	0.1593
2482.00	0.1589
2483.00	0.1589
2484.00	0.1589
2485.00	0.1587
2486.00	0.1588
2487.00	0.1590
2488.00	0.1588
2489.00	0.1586
2490.00	0.1589
2491.00	0.1589
2492.00	0.1591
2493.00	0.1593
2494.00	0.1593
2495.00	0.1591
2496.00	0.1593
2497.00	0.1590
2498.00	0.1588
2499.00	0.1586
2500.00	0.1588
2501.00	0.1587
2502.00	0.1584
2503.00	0.1585
2504.00	0.1586
2505.00	0.1584
2506.00	0.1586
2507.00	0.1585
2508.00	0.1584
2509.00	0.1586
2510.00	0.1586
2511.00	0.1587
2512.00	0.1586
2513.00	0.1583
2514.00	0.1583
2515.00	0.1584
2516.00	0.1583
2517.00	0.1583
2518.00	0.1582
2519.00	0.1583
2520.00	0.1584
2521.00	0.1584
2522.00	0.1583
2523.00	0.1582
2524.00	0.1581
2525.00	0.1580
2526.00	0.1577
2527.00	0.1575
2528.00	0.1573
2529.00	0.1574
2530.00	0.1571
2531.00	0.1568
2532.00	0.1567
2533.00	0.1570
2534.00	0.1573
2535.00	0.1572
2536.00	0.1569
2537.00	0.1569
2538.00	0.1571
2539.00	0.1572
2540.00	0.1568
2541.00	0.1564
2542.00	0.1562
2543.00	0.1562
2544.00	0.1563
2545.00	0.1561
2546.00	0.1558
2547.00	0.1557
2548.00	0.1557
2549.00	0.1557
2550.00	0.1556
2551.00	0.1554
2552.00	0.1555
2553.00	0.1554
2554.00	0.1553
2555.00	0.1552
2556.00	0.1551
2557.00	0.1551
2558.00	0.1553
2559.00	0.1549
2560.00	0.1554
2561.00	0.1557
2562.00	0.1558
2563.00	0.1557
2564.00	0.1559
2565.00	0.1559
2566.00	0.1562
2567.00	0.1557
2568.00	0.1552
2569.00	0.1552
2570.00	0.1555
2571.00	0.1553
2572.00	0.1555
2573.00	0.1558
2574.00	0.1564
2575.00	0.1572
2576.00	0.1574
2577.00	0.1572
2578.00	0.1573
2579.00	0.1569
2580.00	0.1562
2581.00	0.1552
2582.00	0.1545
2583.00	0.1535
2584.00	0.1532
2585.00	0.1526
2586.00	0.1522
2587.00	0.1523
2588.00	0.1524
2589.00	0.1525
2590.00	0.1526
2591.00	0.1527
2592.00	0.1529
2593.00	0.1537
2594.00	0.1533
2595.00	0.1534
2596.00	0.1530
2597.00	0.1532
2598.00	0.1531
2599.00	0.1531
2600.00	0.1521
2601.00	0.1516
2602.00	0.1508
2603.00	0.1501
2604.00	0.1499
2605.00	0.1491
2606.00	0.1483
2607.00	0.1481
2608.00	0.1479
2609.00	0.1487
2610.00	0.1493
2611.00	0.1493
2612.00	0.1501
2613.00	0.1511
2614.00	0.1517
2615.00	0.1528
2616.00	0.1527
2617.00	0.1527
2618.00	0.1530
2619.00	0.1528
2620.00	0.1520
2621.00	0.1518
2622.00	0.1513
2623.00	0.1506
2624.00	0.1505
2625.00	0.1505
2626.00	0.1506
2627.00	0.1506
2628.00	0.1507
2629.00	0.1506
2630.00	0.1511
2631.00	0.1513
2632.00	0.1509
2633.00	0.1508
2634.00	0.1508
2635.00	0.1507
2636.00	0.1505
2637.00	0.1505
2638.00	0.1504
2639.00	0.1503
2640.00	0.1503
2641.00	0.1501
2642.00	0.1500
2643.00	0.1500
2644.00	0.1498
2645.00	0.1497
2646.00	0.1497
2647.00	0.1499
2648.00	0.1502
2649.00	0.1495
2650.00	0.1496
2651.00	0.1497
2652.00	0.1497
2653.00	0.1494
2654.00	0.1489
2655.00	0.1484
2656.00	0.1485
2657.00	0.1480
2658.00	0.1475
2659.00	0.1471
2660.00	0.1469
2661.00	0.1470
2662.00	0.1462
2663.00	0.1463
2664.00	0.1461
2665.00	0.1463
2666.00	0.1466
2667.00	0.1466
2668.00	0.1460
2669.00	0.1470
2670.00	0.1485
2671.00	0.1496
2672.00	0.1497
2673.00	0.1501
2674.00	0.1513
2675.00	0.1516
2676.00	0.1518
2677.00	0.1511
2678.00	0.1500
2679.00	0.1495
2680.00	0.1483
2681.00	0.1466
2682.00	0.1467
2683.00	0.1459
2684.00	0.1454
2685.00	0.1448
2686.00	0.1436
2687.00	0.1442
2688.00	0.1443
2689.00	0.1450
2690.00	0.1455
2691.00	0.1450
2692.00	0.1458
2693.00	0.1481
2694.00	0.1489
2695.00	0.1492
2696.00	0.1489
2697.00	0.1519
2698.00	0.1564
2699.00	0.1606
2700.00	0.1630
2701.00	0.1650
2702.00	0.1672
2703.00	0.1705
2704.00	0.1744
2705.00	0.1781
2706.00	0.1819
2707.00	0.1834
2708.00	0.1854
2709.00	0.1873
2710.00	0.1902
2711.00	0.1925
2712.00	0.1972
2713.00	0.1994
2714.00	0.2012
2715.00	0.2029
2716.00	0.2041
2717.00	0.2045
2718.00	0.2072
2719.00	0.2081
2720.00	0.2099
2721.00	0.2096
2722.00	0.2099
2723.00	0.2100
2724.00	0.2100
2725.00	0.2081
2726.00	0.2070
2727.00	0.2058
2728.00	0.2035
2729.00	0.2004
2730.00	0.1988
2731.00	0.1975
2732.00	0.1968
2733.00	0.1947
2734.00	0.1916
2735.00	0.1899
2736.00	0.1897
2737.00	0.1881
2738.00	0.1865
2739.00	0.1828
2740.00	0.1808
2741.00	0.1770
2742.00	0.1730
2743.00	0.1690
2744.00	0.1667
2745.00	0.1635
2746.00	0.1600
2747.00	0.1574
2748.00	0.1561
2749.00	0.1539
2750.00	0.1534
2751.00	0.1506
2752.00	0.1500
2753.00	0.1477
2754.00	0.1469
2755.00	0.1453
2756.00	0.1437
2757.00	0.1421
2758.00	0.1399
2759.00	0.1375
2760.00	0.1357
2761.00	0.1349
2762.00	0.1336
2763.00	0.1323
2764.00	0.1321
2765.00	0.1299
2766.00	0.1278
2767.00	0.1275
2768.00	0.1269
2769.00	0.1259
2770.00	0.1252
2771.00	0.1246
2772.00	0.1229
2773.00	0.1229
2774.00	0.1229
2775.00	0.1226
2776.00	0.1227
2777.00	0.1229
2778.00	0.1220
2779.00	0.1221
2780.00	0.1220
2781.00	0.1212
2782.00	0.1208
2783.00	0.1210
2784.00	0.1214
2785.00	0.1208
2786.00	0.1206
2787.00	0.1204
2788.00	0.1200
2789.00	0.1200
2790.00	0.1201
2791.00	0.1200
2792.00	0.1202
2793.00	0.1204
2794.00	0.1199
2795.00	0.1196
2796.00	0.1193
2797.00	0.1193
2798.00	0.1195
2799.00	0.1201
2800.00	0.1205
2801.00	0.1204
2802.00	0.1207
2803.00	0.1207
2804.00	0.1206
2805.00	0.1210
2806.00	0.1207
2807.00	0.1210
2808.00	0.1212
2809.00	0.1213
2810.00	0.1213
2811.00	0.1213
2812.00	0.1212
2813.00	0.1215
2814.00	0.1218
2815.00	0.1222
2816.00	0.1226
2817.00	0.1229
2818.00	0.1229
2819.00	0.1232
2820.00	0.1236
2821.00	0.1239
2822.00	0.1243
2823.00	0.1246
2824.00	0.1247
2825.00	0.1250
2826.00	0.1254
2827.00	0.1256
2828.00	0.1261
2829.00	0.1264
2830.00	0.1268
2831.00	0.1270
2832.00	0.1271
2833.00	0.1274
2834.00	0.1276
2835.00	0.1280
2836.00	0.1281
2837.00	0.1282
2838.00	0.1285
2839.00	0.1288
2840.00	0.1290
2841.00	0.1291
2842.00	0.1294
2843.00	0.1297
2844.00	0.1299
2845.00	0.1301
2846.00	0.1303
2847.00	0.1306
2848.00	0.1308
2849.00	0.1308
2850.00	0.1307
2851.00	0.1310
2852.00	0.1310
2853.00	0.1311
2854.00	0.1312
2855.00	0.1312
2856.00	0.1314
2857.00	0.1315
2858.00	0.1316
2859.00	0.1317
2860.00	0.1318
2861.00	0.1320
2862.00	0.1321
2863.00	0.1322
2864.00	0.1323
2865.00	0.1323
2866.00	0.1325
2867.00	0.1326
2868.00	0.1326
2869.00	0.1327
2870.00	0.1325
2871.00	0.1328
2872.00	0.1328
2873.00	0.1328
2874.00	0.1330
2875.00	0.1330
2876.00	0.1330
2877.00	0.1331
2878.00	0.1330
2879.00	0.1331
2880.00	0.1330
2881.00	0.1334
2882.00	0.1333
2883.00	0.1334
2884.00	0.1334
2885.00	0.1334
2886.00	0.1335
2887.00	0.1336
2888.00	0.1336
2889.00	0.1337
2890.00	0.1336
2891.00	0.1336
2892.00	0.1334
2893.00	0.1333
2894.00	0.1332
2895.00	0.1331
2896.00	0.1331
2897.00	0.1331
2898.00	0.1331
2899.00	0.1329
2900.00	0.1329
2901.00	0.1330
2902.00	0.1331
2903.00	0.1333
2904.00	0.1334
2905.00	0.1334
2906.00	0.1334
2907.00	0.1335
2908.00	0.1335
2909.00	0.1339
2910.00	0.1339
2911.00	0.1338
2912.00	0.1338
2913.00	0.1337
2914.00	0.1337
2915.00	0.1336
2916.00	0.1336
2917.00	0.1336
2918.00	0.1334
2919.00	0.1335
2920.00	0.1332
2921.00	0.1332
2922.00	0.1334
2923.00	0.1333
2924.00	0.1332
2925.00	0.1331
2926.00	0.1330
2927.00	0.1330
2928.00	0.1331
2929.00	0.1332
2930.00	0.1329
2931.00	0.1328
2932.00	0.1328
2933.00	0.1325
2934.00	0.1325
2935.00	0.1324
2936.00	0.1323
2937.00	0.1323
2938.00	0.1323
2939.00	0.1320
2940.00	0.1322
2941.00	0.1324
2942.00	0.1325
2943.00	0.1326
2944.00	0.1329
2945.00	0.1327
2946.00	0.1326
2947.00	0.1327
2948.00	0.1326
2949.00	0.1325
2950.00	0.1326
2951.00	0.1325
2952.00	0.1323
2953.00	0.1320
2954.00	0.1323
2955.00	0.1322
2956.00	0.1321
2957.00	0.1321
2958.00	0.1321
2959.00	0.1321
2960.00	0.1321
2961.00	0.1321
2962.00	0.1323
2963.00	0.1326
2964.00	0.1325
2965.00	0.1322
2966.00	0.1325
2967.00	0.1325
2968.00	0.1327
2969.00	0.1326
2970.00	0.1324
2971.00	0.1326
2972.00	0.1325
2973.00	0.1320
2974.00	0.1321
2975.00	0.1324
2976.00	0.1322
2977.00	0.1318
2978.00	0.1319
2979.00	0.1316
2980.00	0.1317
2981.00	0.1320
2982.00	0.1318
2983.00	0.1319
2984.00	0.1319
2985.00	0.1316
2986.00	0.1312
2987.00	0.1313
2988.00	0.1312
2989.00	0.1313
2990.00	0.1316
2991.00	0.1316
2992.00	0.1319
2993.00	0.1319
2994.00	0.1318
2995.00	0.1318
2996.00	0.1325
2997.00	0.1331
2998.00	0.1334
2999.00	0.1339
3000.00	0.1343
3001.00	0.1342
3002.00	0.1345
3003.00	0.1347
3004.00	0.1346
3005.00	0.1349
3006.00	0.1350
3007.00	0.1352
3008.00	0.1353
3009.00	0.1355
3010.00	0.1354
3011.00	0.1353
3012.00	0.1352
3013.00	0.1349
3014.00	0.1348
3015.00	0.1349
3016.00	0.1350
3017.00	0.1349
3018.00	0.1348
3019.00	0.1348
3020.00	0.1346
3021.00	0.1347
3022.00	0.1346
3023.00	0.1345
3024.00	0.1345
3025.00	0.1346
3026.00	0.1346
3027.00	0.1346
3028.00	0.1346
3029.00	0.1346
3030.00	0.1345
3031.00	0.1347
3032.00	0.1344
3033.00	0.1343
3034.00	0.1343
3035.00	0.1341
3036.00	0.1339
3037.00	0.1340
3038.00	0.1337
3039.00	0.1337
3040.00	0.1335
3041.00	0.1335
3042.00	0.1333
3043.00	0.1332
3044.00	0.1330
3045.00	0.1331
3046.00	0.1330
3047.00	0.1329
3048.00	0.1328
3049.00	0.1328
3050.00	0.1328
3051.00	0.1328
3052.00	0.1329
3053.00	0.1329
3054.00	0.1329
3055.00	0.1331
3056.00	0.1330
3057.00	0.1330
3058.00	0.1330
3059.00	0.1332
3060.00	0.1332
3061.00	0.1333
3062.00	0.1330
3063.00	0.1332
3064.00	0.1332
3065.00	0.1334
3066.00	0.1333
3067.00	0.1333
3068.00	0.1333
3069.00	0.1331
3070.00	0.1332
3071.00	0.1330
3072.00	0.1332
3073.00	0.1329
3074.00	0.1328
3075.00	0.1328
3076.00	0.1326
3077.00	0.1325
3078.00	0.1324
3079.00	0.1325
3080.00	0.1322
3081.00	0.1321
3082.00	0.1319
3083.00	0.1317
3084.00	0.1317
3085.00	0.1315
3086.00	0.1314
3087.00	0.1313
3088.00	0.1312
3089.00	0.1311
3090.00	0.1312
3091.00	0.1311
3092.00	0.1312
3093.00	0.1311
3094.00	0.1311
3095.00	0.1311
3096.00	0.1310
3097.00	0.1310
3098.00	0.1310
3099.00	0.1310
3100.00	0.1310
3101.00	0.1310
3102.00	0.1310
3103.00	0.1312
3104.00	0.1313
3105.00	0.1314
3106.00	0.1314
3107.00	0.1313
3108.00	0.1313
3109.00	0.1312
3110.00	0.1312
3111.00	0.1311
3112.00	0.1309
3113.00	0.1309
3114.00	0.1308
3115.00	0.1308
3116.00	0.1307
3117.00	0.1306
3118.00	0.1306
3119.00	0.1304
3120.00	0.1302
3121.00	0.1301
3122.00	0.1299
3123.00	0.1296
3124.00	0.1296
3125.00	0.1297
3126.00	0.1295
3127.00	0.1296
3128.00	0.1296
3129.00	0.1296
3130.00	0.1296
3131.00	0.1292
3132.00	0.1294
3133.00	0.1292
3134.00	0.1292
3135.00	0.1290
3136.00	0.1289
3137.00	0.1288
3138.00	0.1287
3139.00	0.1288
3140.00	0.1287
3141.00	0.1285
3142.00	0.1282
3143.00	0.1283
3144.00	0.1281
3145.00	0.1279
3146.00	0.1278
3147.00	0.1276
3148.00	0.1280
3149.00	0.1278
3150.00	0.1277
3151.00	0.1276
3152.00	0.1276
3153.00	0.1277
3154.00	0.1277
3155.00	0.1275
3156.00	0.1272
3157.00	0.1268
3158.00	0.1270
3159.00	0.1271
3160.00	0.1269
3161.00	0.1268
3162.00	0.1269
3163.00	0.1268
3164.00	0.1267
3165.00	0.1268
3166.00	0.1265
3167.00	0.1264
3168.00	0.1262
3169.00	0.1260
3170.00	0.1258
3171.00	0.1260
3172.00	0.1262
3173.00	0.1263
3174.00	0.1268
3175.00	0.1268
3176.00	0.1271
3177.00	0.1270
3178.00	0.1271
3179.00	0.1267
3180.00	0.1269
3181.00	0.1267
3182.00	0.1268
3183.00	0.1272
3184.00	0.1276
3185.00	0.1277
3186.00	0.1280
3187.00	0.1288
3188.00	0.1280
3189.00	0.1283
3190.00	0.1284
3191.00	0.1277
3192.00	0.1273
3193.00	0.1267
3194.00	0.1267
3195.00	0.1268
3196.00	0.1271
3197.00	0.1275
3198.00	0.1279
3199.00	0.1273
3200.00	0.1274
3201.00	0.1278
3202.00	0.1275
3203.00	0.1280
3204.00	0.1271
3205.00	0.1273
3206.00	0.1265
3207.00	0.1259
3208.00	0.1261
3209.00	0.1259
3210.00	0.1261
3211.00	0.1259
3212.00	0.1261
3213.00	0.1263
3214.00	0.1257
3215.00	0.1254
3216.00	0.1257
3217.00	0.1259
3218.00	0.1247
3219.00	0.1248
3220.00	0.1243
3221.00	0.1238
3222.00	0.1235
3223.00	0.1239
3224.00	0.1249
3225.00	0.1255
3226.00	0.1262
3227.00	0.1262
3228.00	0.1265
3229.00	0.1263
3230.00	0.1262
3231.00	0.1268
3232.00	0.1266
3233.00	0.1265
3234.00	0.1254
3235.00	0.1258
3236.00	0.1245
3237.00	0.1242
3238.00	0.1243
3239.00	0.1243
3240.00	0.1237
3241.00	0.1232
3242.00	0.1222
3243.00	0.1221
3244.00	0.1224
3245.00	0.1217
3246.00	0.1211
3247.00	0.1208
3248.00	0.1197
3249.00	0.1196
3250.00	0.1190
3251.00	0.1197
3252.00	0.1195
3253.00	0.1213
3254.00	0.1210
3255.00	0.1209
3256.00	0.1219
3257.00	0.1237
3258.00	0.1230
3259.00	0.1241
3260.00	0.1224
3261.00	0.1221
3262.00	0.1211
3263.00	0.1209
3264.00	0.1210
3265.00	0.1220
3266.00	0.1220
3267.00	0.1224
3268.00	0.1209
3269.00	0.1204
3270.00	0.1196
3271.00	0.1187
3272.00	0.1166
3273.00	0.1159
3274.00	0.1148
3275.00	0.1152
3276.00	0.1148
3277.00	0.1153
3278.00	0.1170
3279.00	0.1180
3280.00	0.1177
3281.00	0.1177
3282.00	0.1193
3283.00	0.1206
3284.00	0.1199
3285.00	0.1229
3286.00	0.1259
3287.00	0.1265
3288.00	0.1283
3289.00	0.1321
3290.00	0.1318
3291.00	0.1312
3292.00	0.1328
3293.00	0.1339
3294.00	0.1360
3295.00	0.1356
3296.00	0.1376
3297.00	0.1398
3298.00	0.1410
3299.00	0.1404
3300.00	0.1406
