"20-30mM-1_CB0mM - RawData"
"Wavelength nm."	"Abs."
300.00	0.0617
301.00	0.0617
302.00	0.0616
303.00	0.0614
304.00	0.0610
305.00	0.0606
306.00	0.0604
307.00	0.0602
308.00	0.0605
309.00	0.0607
310.00	0.0603
311.00	0.0595
312.00	0.0594
313.00	0.0588
314.00	0.0586
315.00	0.0589
316.00	0.0593
317.00	0.0590
318.00	0.0589
319.00	0.0586
320.00	0.0583
321.00	0.0583
322.00	0.0582
323.00	0.0582
324.00	0.0583
325.00	0.0584
326.00	0.0585
327.00	0.0588
328.00	0.0590
329.00	0.0592
330.00	0.0591
331.00	0.0587
332.00	0.0579
333.00	0.0581
334.00	0.0583
335.00	0.0587
336.00	0.0598
337.00	0.0616
338.00	0.0628
339.00	0.0632
340.00	0.0639
341.00	0.0643
342.00	0.0643
343.00	0.0641
344.00	0.0646
345.00	0.0651
346.00	0.0656
347.00	0.0661
348.00	0.0663
349.00	0.0669
350.00	0.0673
351.00	0.0680
352.00	0.0687
353.00	0.0696
354.00	0.0702
355.00	0.0707
356.00	0.0711
357.00	0.0714
358.00	0.0717
359.00	0.0721
360.00	0.0723
361.00	0.0725
362.00	0.0723
363.00	0.0733
364.00	0.0743
365.00	0.0759
366.00	0.0777
367.00	0.0804
368.00	0.0807
369.00	0.0811
370.00	0.0812
371.00	0.0811
372.00	0.0804
373.00	0.0811
374.00	0.0818
375.00	0.0825
376.00	0.0834
377.00	0.0842
378.00	0.0851
379.00	0.0857
380.00	0.0863
381.00	0.0867
382.00	0.0869
383.00	0.0876
384.00	0.0885
385.00	0.0895
386.00	0.0908
387.00	0.0923
388.00	0.0933
389.00	0.0943
390.00	0.0952
391.00	0.0962
392.00	0.0972
393.00	0.0983
394.00	0.0995
395.00	0.1007
396.00	0.1018
397.00	0.1027
398.00	0.1036
399.00	0.1046
400.00	0.1057
401.00	0.1070
402.00	0.1085
403.00	0.1098
404.00	0.1109
405.00	0.1121
406.00	0.1131
407.00	0.1142
408.00	0.1153
409.00	0.1165
410.00	0.1177
411.00	0.1190
412.00	0.1203
413.00	0.1216
414.00	0.1230
415.00	0.1244
416.00	0.1259
417.00	0.1274
418.00	0.1289
419.00	0.1304
420.00	0.1320
421.00	0.1338
422.00	0.1355
423.00	0.1372
424.00	0.1387
425.00	0.1400
426.00	0.1415
427.00	0.1430
428.00	0.1447
429.00	0.1465
430.00	0.1484
431.00	0.1504
432.00	0.1522
433.00	0.1540
434.00	0.1559
435.00	0.1578
436.00	0.1596
437.00	0.1615
438.00	0.1637
439.00	0.1659
440.00	0.1682
441.00	0.1704
442.00	0.1725
443.00	0.1745
444.00	0.1765
445.00	0.1786
446.00	0.1809
447.00	0.1834
448.00	0.1859
449.00	0.1885
450.00	0.1912
451.00	0.1940
452.00	0.1964
453.00	0.1990
454.00	0.2016
455.00	0.2043
456.00	0.2069
457.00	0.2097
458.00	0.2123
459.00	0.2151
460.00	0.2179
461.00	0.2206
462.00	0.2235
463.00	0.2261
464.00	0.2288
465.00	0.2314
466.00	0.2340
467.00	0.2366
468.00	0.2394
469.00	0.2418
470.00	0.2444
471.00	0.2469
472.00	0.2494
473.00	0.2519
474.00	0.2547
475.00	0.2574
476.00	0.2601
477.00	0.2630
478.00	0.2659
479.00	0.2688
480.00	0.2717
481.00	0.2744
482.00	0.2769
483.00	0.2794
484.00	0.2818
485.00	0.2840
486.00	0.2863
487.00	0.2887
488.00	0.2909
489.00	0.2930
490.00	0.2953
491.00	0.2975
492.00	0.2998
493.00	0.3020
494.00	0.3041
495.00	0.3062
496.00	0.3081
497.00	0.3100
498.00	0.3120
499.00	0.3139
500.00	0.3159
501.00	0.3179
502.00	0.3198
503.00	0.3217
504.00	0.3236
505.00	0.3253
506.00	0.3269
507.00	0.3284
508.00	0.3299
509.00	0.3314
510.00	0.3327
511.00	0.3342
512.00	0.3355
513.00	0.3367
514.00	0.3378
515.00	0.3386
516.00	0.3393
517.00	0.3400
518.00	0.3403
519.00	0.3405
520.00	0.3409
521.00	0.3413
522.00	0.3417
523.00	0.3421
524.00	0.3422
525.00	0.3419
526.00	0.3416
527.00	0.3411
528.00	0.3407
529.00	0.3405
530.00	0.3405
531.00	0.3409
532.00	0.3405
533.00	0.3401
534.00	0.3395
535.00	0.3390
536.00	0.3379
537.00	0.3376
538.00	0.3372
539.00	0.3371
540.00	0.3366
541.00	0.3363
542.00	0.3361
543.00	0.3358
544.00	0.3356
545.00	0.3353
546.00	0.3349
547.00	0.3345
548.00	0.3341
549.00	0.3334
550.00	0.3328
551.00	0.3321
552.00	0.3313
553.00	0.3304
554.00	0.3292
555.00	0.3278
556.00	0.3265
557.00	0.3246
558.00	0.3226
559.00	0.3208
560.00	0.3186
561.00	0.3160
562.00	0.3139
563.00	0.3116
564.00	0.3089
565.00	0.3061
566.00	0.3033
567.00	0.3000
568.00	0.2968
569.00	0.2935
570.00	0.2906
571.00	0.2876
572.00	0.2846
573.00	0.2813
574.00	0.2782
575.00	0.2748
576.00	0.2715
577.00	0.2683
578.00	0.2653
579.00	0.2624
580.00	0.2598
581.00	0.2572
582.00	0.2547
583.00	0.2524
584.00	0.2500
585.00	0.2477
586.00	0.2456
587.00	0.2437
588.00	0.2418
589.00	0.2400
590.00	0.2384
591.00	0.2370
592.00	0.2354
593.00	0.2340
594.00	0.2326
595.00	0.2312
596.00	0.2296
597.00	0.2280
598.00	0.2267
599.00	0.2253
600.00	0.2238
601.00	0.2224
602.00	0.2209
603.00	0.2191
604.00	0.2172
605.00	0.2153
606.00	0.2128
607.00	0.2101
608.00	0.2077
609.00	0.2055
610.00	0.2029
611.00	0.2000
612.00	0.1970
613.00	0.1932
614.00	0.1889
615.00	0.1848
616.00	0.1812
617.00	0.1775
618.00	0.1738
619.00	0.1700
620.00	0.1659
621.00	0.1617
622.00	0.1576
623.00	0.1539
624.00	0.1499
625.00	0.1460
626.00	0.1422
627.00	0.1384
628.00	0.1344
629.00	0.1306
630.00	0.1269
631.00	0.1233
632.00	0.1194
633.00	0.1156
634.00	0.1122
635.00	0.1091
636.00	0.1061
637.00	0.1033
638.00	0.1007
639.00	0.0981
640.00	0.0954
641.00	0.0926
642.00	0.0903
643.00	0.0881
644.00	0.0859
645.00	0.0839
646.00	0.0821
647.00	0.0803
648.00	0.0787
649.00	0.0775
650.00	0.0763
651.00	0.0749
652.00	0.0735
653.00	0.0721
654.00	0.0705
655.00	0.0689
656.00	0.0674
657.00	0.0665
658.00	0.0654
659.00	0.0646
660.00	0.0639
661.00	0.0634
662.00	0.0625
663.00	0.0619
664.00	0.0608
665.00	0.0600
666.00	0.0597
667.00	0.0591
668.00	0.0585
669.00	0.0580
670.00	0.0582
671.00	0.0577
672.00	0.0576
673.00	0.0573
674.00	0.0570
675.00	0.0558
676.00	0.0553
677.00	0.0546
678.00	0.0539
679.00	0.0534
680.00	0.0532
681.00	0.0528
682.00	0.0525
683.00	0.0524
684.00	0.0522
685.00	0.0518
686.00	0.0513
687.00	0.0509
688.00	0.0503
689.00	0.0500
690.00	0.0494
691.00	0.0496
692.00	0.0495
693.00	0.0494
694.00	0.0491
695.00	0.0493
696.00	0.0487
697.00	0.0482
698.00	0.0477
699.00	0.0476
700.00	0.0473
701.00	0.0471
702.00	0.0471
703.00	0.0475
704.00	0.0474
705.00	0.0468
706.00	0.0468
707.00	0.0467
708.00	0.0467
709.00	0.0463
710.00	0.0466
711.00	0.0468
712.00	0.0468
713.00	0.0460
714.00	0.0461
715.00	0.0466
716.00	0.0471
717.00	0.0466
718.00	0.0462
719.00	0.0462
720.00	0.0455
721.00	0.0444
722.00	0.0445
723.00	0.0446
724.00	0.0438
725.00	0.0435
726.00	0.0423
727.00	0.0420
728.00	0.0416
729.00	0.0420
730.00	0.0418
731.00	0.0424
732.00	0.0421
733.00	0.0422
734.00	0.0421
735.00	0.0419
736.00	0.0416
737.00	0.0415
738.00	0.0414
739.00	0.0414
740.00	0.0413
741.00	0.0412
742.00	0.0410
743.00	0.0407
744.00	0.0404
745.00	0.0403
746.00	0.0402
747.00	0.0400
748.00	0.0405
749.00	0.0402
750.00	0.0402
751.00	0.0403
752.00	0.0406
753.00	0.0398
754.00	0.0400
755.00	0.0401
756.00	0.0400
757.00	0.0397
758.00	0.0402
759.00	0.0401
760.00	0.0401
761.00	0.0397
762.00	0.0397
763.00	0.0395
764.00	0.0394
765.00	0.0393
766.00	0.0394
767.00	0.0394
768.00	0.0394
769.00	0.0397
770.00	0.0393
771.00	0.0389
772.00	0.0388
773.00	0.0386
774.00	0.0383
775.00	0.0385
776.00	0.0391
777.00	0.0390
778.00	0.0388
779.00	0.0385
780.00	0.0384
781.00	0.0377
782.00	0.0373
783.00	0.0371
784.00	0.0370
785.00	0.0372
786.00	0.0374
787.00	0.0372
788.00	0.0368
789.00	0.0363
790.00	0.0359
791.00	0.0352
792.00	0.0346
793.00	0.0341
794.00	0.0337
795.00	0.0329
796.00	0.0321
797.00	0.0310
798.00	0.0299
799.00	0.0287
800.00	0.0279
801.00	0.0270
802.00	0.0266
803.00	0.0261
804.00	0.0252
805.00	0.0242
806.00	0.0235
807.00	0.0228
808.00	0.0224
809.00	0.0221
810.00	0.0217
811.00	0.0214
812.00	0.0209
813.00	0.0204
814.00	0.0200
815.00	0.0198
816.00	0.0196
817.00	0.0194
818.00	0.0192
819.00	0.0190
820.00	0.0188
821.00	0.0187
822.00	0.0188
823.00	0.0188
824.00	0.0186
825.00	0.0193
826.00	0.0192
827.00	0.0192
828.00	0.0196
829.00	0.0198
830.00	0.0195
831.00	0.0197
832.00	0.0197
833.00	0.0197
834.00	0.0195
835.00	0.0193
836.00	0.0191
837.00	0.0190
838.00	0.0189
839.00	0.0189
840.00	0.0189
841.00	0.0192
842.00	0.0191
843.00	0.0191
844.00	0.0192
845.00	0.0191
846.00	0.0189
847.00	0.0192
848.00	0.0194
849.00	0.0193
850.00	0.0193
851.00	0.0194
852.00	0.0190
853.00	0.0187
854.00	0.0187
855.00	0.0188
856.00	0.0187
857.00	0.0186
858.00	0.0186
859.00	0.0185
860.00	0.0184
861.00	0.0182
862.00	0.0182
863.00	0.0181
864.00	0.0181
865.00	0.0180
866.00	0.0180
867.00	0.0179
868.00	0.0177
869.00	0.0176
870.00	0.0176
871.00	0.0175
872.00	0.0174
873.00	0.0174
874.00	0.0174
875.00	0.0174
876.00	0.0175
877.00	0.0175
878.00	0.0173
879.00	0.0170
880.00	0.0169
881.00	0.0167
882.00	0.0167
883.00	0.0168
884.00	0.0169
885.00	0.0171
886.00	0.0170
887.00	0.0170
888.00	0.0169
889.00	0.0168
890.00	0.0166
891.00	0.0168
892.00	0.0165
893.00	0.0164
894.00	0.0164
895.00	0.0165
896.00	0.0162
897.00	0.0163
898.00	0.0163
899.00	0.0163
900.00	0.0161
901.00	0.0158
902.00	0.0159
903.00	0.0162
904.00	0.0161
905.00	0.0163
906.00	0.0165
907.00	0.0165
908.00	0.0161
909.00	0.0161
910.00	0.0159
911.00	0.0159
912.00	0.0158
913.00	0.0157
914.00	0.0154
915.00	0.0155
916.00	0.0155
917.00	0.0156
918.00	0.0157
919.00	0.0160
920.00	0.0160
921.00	0.0159
922.00	0.0157
923.00	0.0156
924.00	0.0153
925.00	0.0153
926.00	0.0153
927.00	0.0154
928.00	0.0154
929.00	0.0155
930.00	0.0152
931.00	0.0150
932.00	0.0149
933.00	0.0148
934.00	0.0148
935.00	0.0149
936.00	0.0149
937.00	0.0151
938.00	0.0152
939.00	0.0152
940.00	0.0151
941.00	0.0151
942.00	0.0151
943.00	0.0150
944.00	0.0150
945.00	0.0150
946.00	0.0149
947.00	0.0149
948.00	0.0149
949.00	0.0148
950.00	0.0147
951.00	0.0149
952.00	0.0149
953.00	0.0147
954.00	0.0147
955.00	0.0148
956.00	0.0147
957.00	0.0147
958.00	0.0146
959.00	0.0144
960.00	0.0145
961.00	0.0144
962.00	0.0144
963.00	0.0145
964.00	0.0146
965.00	0.0144
966.00	0.0144
967.00	0.0143
968.00	0.0143
969.00	0.0144
970.00	0.0144
971.00	0.0145
972.00	0.0145
973.00	0.0144
974.00	0.0141
975.00	0.0140
976.00	0.0139
977.00	0.0139
978.00	0.0139
979.00	0.0141
980.00	0.0142
981.00	0.0141
982.00	0.0143
983.00	0.0143
984.00	0.0143
985.00	0.0143
986.00	0.0146
987.00	0.0144
988.00	0.0145
989.00	0.0143
990.00	0.0143
991.00	0.0142
992.00	0.0142
993.00	0.0141
994.00	0.0142
995.00	0.0142
996.00	0.0141
997.00	0.0142
998.00	0.0141
999.00	0.0141
1000.00	0.0139
1001.00	0.0137
1002.00	0.0137
1003.00	0.0136
1004.00	0.0137
1005.00	0.0137
1006.00	0.0139
1007.00	0.0138
1008.00	0.0135
1009.00	0.0133
1010.00	0.0134
1011.00	0.0132
1012.00	0.0129
1013.00	0.0134
1014.00	0.0132
1015.00	0.0131
1016.00	0.0131
1017.00	0.0133
1018.00	0.0134
1019.00	0.0135
1020.00	0.0135
1021.00	0.0136
1022.00	0.0135
1023.00	0.0131
1024.00	0.0132
1025.00	0.0129
1026.00	0.0130
1027.00	0.0129
1028.00	0.0132
1029.00	0.0131
1030.00	0.0134
1031.00	0.0134
1032.00	0.0134
1033.00	0.0132
1034.00	0.0133
1035.00	0.0131
1036.00	0.0128
1037.00	0.0128
1038.00	0.0128
1039.00	0.0128
1040.00	0.0129
1041.00	0.0131
1042.00	0.0132
1043.00	0.0133
1044.00	0.0129
1045.00	0.0125
1046.00	0.0123
1047.00	0.0123
1048.00	0.0120
1049.00	0.0122
1050.00	0.0125
1051.00	0.0125
1052.00	0.0124
1053.00	0.0125
1054.00	0.0124
1055.00	0.0126
1056.00	0.0125
1057.00	0.0127
1058.00	0.0129
1059.00	0.0128
1060.00	0.0128
1061.00	0.0129
1062.00	0.0127
1063.00	0.0124
1064.00	0.0126
1065.00	0.0127
1066.00	0.0124
1067.00	0.0125
1068.00	0.0130
1069.00	0.0124
1070.00	0.0117
1071.00	0.0119
1072.00	0.0117
1073.00	0.0112
1074.00	0.0118
1075.00	0.0122
1076.00	0.0123
1077.00	0.0122
1078.00	0.0122
1079.00	0.0120
1080.00	0.0120
1081.00	0.0120
1082.00	0.0119
1083.00	0.0120
1084.00	0.0120
1085.00	0.0121
1086.00	0.0119
1087.00	0.0120
1088.00	0.0119
1089.00	0.0120
1090.00	0.0119
1091.00	0.0120
1092.00	0.0120
1093.00	0.0118
1094.00	0.0117
1095.00	0.0117
1096.00	0.0118
1097.00	0.0118
1098.00	0.0121
1099.00	0.0123
1100.00	0.0124
1101.00	0.0121
1102.00	0.0120
1103.00	0.0120
1104.00	0.0117
1105.00	0.0117
1106.00	0.0118
1107.00	0.0118
1108.00	0.0118
1109.00	0.0118
1110.00	0.0116
1111.00	0.0115
1112.00	0.0115
1113.00	0.0115
1114.00	0.0115
1115.00	0.0114
1116.00	0.0112
1117.00	0.0111
1118.00	0.0111
1119.00	0.0109
1120.00	0.0111
1121.00	0.0112
1122.00	0.0113
1123.00	0.0112
1124.00	0.0113
1125.00	0.0113
1126.00	0.0113
1127.00	0.0112
1128.00	0.0111
1129.00	0.0111
1130.00	0.0110
1131.00	0.0110
1132.00	0.0111
1133.00	0.0112
1134.00	0.0113
1135.00	0.0113
1136.00	0.0113
1137.00	0.0113
1138.00	0.0114
1139.00	0.0113
1140.00	0.0112
1141.00	0.0111
1142.00	0.0109
1143.00	0.0108
1144.00	0.0109
1145.00	0.0108
1146.00	0.0107
1147.00	0.0110
1148.00	0.0111
1149.00	0.0108
1150.00	0.0110
1151.00	0.0114
1152.00	0.0113
1153.00	0.0112
1154.00	0.0112
1155.00	0.0110
1156.00	0.0109
1157.00	0.0110
1158.00	0.0110
1159.00	0.0111
1160.00	0.0111
1161.00	0.0113
1162.00	0.0111
1163.00	0.0111
1164.00	0.0110
1165.00	0.0109
1166.00	0.0107
1167.00	0.0107
1168.00	0.0109
1169.00	0.0110
1170.00	0.0113
1171.00	0.0114
1172.00	0.0114
1173.00	0.0114
1174.00	0.0113
1175.00	0.0113
1176.00	0.0110
1177.00	0.0112
1178.00	0.0112
1179.00	0.0112
1180.00	0.0110
1181.00	0.0113
1182.00	0.0111
1183.00	0.0111
1184.00	0.0111
1185.00	0.0110
1186.00	0.0109
1187.00	0.0110
1188.00	0.0111
1189.00	0.0109
1190.00	0.0108
1191.00	0.0108
1192.00	0.0107
1193.00	0.0103
1194.00	0.0107
1195.00	0.0111
1196.00	0.0111
1197.00	0.0112
1198.00	0.0113
1199.00	0.0111
1200.00	0.0109
1201.00	0.0108
1202.00	0.0108
1203.00	0.0114
1204.00	0.0116
1205.00	0.0119
1206.00	0.0120
1207.00	0.0117
1208.00	0.0110
1209.00	0.0108
1210.00	0.0106
1211.00	0.0104
1212.00	0.0108
1213.00	0.0111
1214.00	0.0110
1215.00	0.0110
1216.00	0.0111
1217.00	0.0112
1218.00	0.0112
1219.00	0.0111
1220.00	0.0111
1221.00	0.0114
1222.00	0.0112
1223.00	0.0108
1224.00	0.0110
1225.00	0.0110
1226.00	0.0107
1227.00	0.0108
1228.00	0.0112
1229.00	0.0110
1230.00	0.0111
1231.00	0.0110
1232.00	0.0110
1233.00	0.0109
1234.00	0.0108
1235.00	0.0109
1236.00	0.0109
1237.00	0.0106
1238.00	0.0108
1239.00	0.0108
1240.00	0.0107
1241.00	0.0107
1242.00	0.0106
1243.00	0.0106
1244.00	0.0107
1245.00	0.0107
1246.00	0.0108
1247.00	0.0108
1248.00	0.0108
1249.00	0.0106
1250.00	0.0106
1251.00	0.0106
1252.00	0.0107
1253.00	0.0105
1254.00	0.0100
1255.00	0.0100
1256.00	0.0099
1257.00	0.0099
1258.00	0.0101
1259.00	0.0105
1260.00	0.0106
1261.00	0.0105
1262.00	0.0105
1263.00	0.0106
1264.00	0.0106
1265.00	0.0106
1266.00	0.0107
1267.00	0.0105
1268.00	0.0102
1269.00	0.0102
1270.00	0.0103
1271.00	0.0102
1272.00	0.0102
1273.00	0.0102
1274.00	0.0104
1275.00	0.0104
1276.00	0.0103
1277.00	0.0103
1278.00	0.0106
1279.00	0.0104
1280.00	0.0103
1281.00	0.0105
1282.00	0.0105
1283.00	0.0105
1284.00	0.0104
1285.00	0.0102
1286.00	0.0100
1287.00	0.0099
1288.00	0.0097
1289.00	0.0097
1290.00	0.0098
1291.00	0.0099
1292.00	0.0098
1293.00	0.0099
1294.00	0.0099
1295.00	0.0097
1296.00	0.0098
1297.00	0.0096
1298.00	0.0097
1299.00	0.0097
1300.00	0.0097
1301.00	0.0097
1302.00	0.0098
1303.00	0.0097
1304.00	0.0099
1305.00	0.0099
1306.00	0.0099
1307.00	0.0098
1308.00	0.0095
1309.00	0.0095
1310.00	0.0096
1311.00	0.0092
1312.00	0.0092
1313.00	0.0095
1314.00	0.0095
1315.00	0.0092
1316.00	0.0091
1317.00	0.0091
1318.00	0.0089
1319.00	0.0087
1320.00	0.0086
1321.00	0.0087
1322.00	0.0087
1323.00	0.0088
1324.00	0.0090
1325.00	0.0090
1326.00	0.0091
1327.00	0.0093
1328.00	0.0092
1329.00	0.0088
1330.00	0.0090
1331.00	0.0091
1332.00	0.0087
1333.00	0.0087
1334.00	0.0090
1335.00	0.0089
1336.00	0.0089
1337.00	0.0090
1338.00	0.0088
1339.00	0.0088
1340.00	0.0090
1341.00	0.0091
1342.00	0.0088
1343.00	0.0088
1344.00	0.0083
1345.00	0.0081
1346.00	0.0077
1347.00	0.0081
1348.00	0.0083
1349.00	0.0086
1350.00	0.0084
1351.00	0.0085
1352.00	0.0086
1353.00	0.0087
1354.00	0.0089
1355.00	0.0090
1356.00	0.0087
1357.00	0.0087
1358.00	0.0088
1359.00	0.0086
1360.00	0.0091
1361.00	0.0094
1362.00	0.0094
1363.00	0.0093
1364.00	0.0093
1365.00	0.0094
1366.00	0.0094
1367.00	0.0092
1368.00	0.0090
1369.00	0.0087
1370.00	0.0084
1371.00	0.0086
1372.00	0.0084
1373.00	0.0088
1374.00	0.0092
1375.00	0.0090
1376.00	0.0099
1377.00	0.0098
1378.00	0.0098
1379.00	0.0093
1380.00	0.0095
1381.00	0.0082
1382.00	0.0082
1383.00	0.0081
1384.00	0.0085
1385.00	0.0085
1386.00	0.0085
1387.00	0.0087
1388.00	0.0087
1389.00	0.0086
1390.00	0.0086
1391.00	0.0086
1392.00	0.0086
1393.00	0.0084
1394.00	0.0082
1395.00	0.0083
1396.00	0.0088
1397.00	0.0089
1398.00	0.0091
1399.00	0.0091
1400.00	0.0094
1401.00	0.0093
1402.00	0.0092
1403.00	0.0090
1404.00	0.0091
1405.00	0.0086
1406.00	0.0081
1407.00	0.0082
1408.00	0.0084
1409.00	0.0087
1410.00	0.0087
1411.00	0.0089
1412.00	0.0088
1413.00	0.0089
1414.00	0.0087
1415.00	0.0087
1416.00	0.0086
1417.00	0.0086
1418.00	0.0084
1419.00	0.0087
1420.00	0.0087
1421.00	0.0089
1422.00	0.0091
1423.00	0.0092
1424.00	0.0091
1425.00	0.0092
1426.00	0.0094
1427.00	0.0095
1428.00	0.0093
1429.00	0.0090
1430.00	0.0090
1431.00	0.0088
1432.00	0.0089
1433.00	0.0091
1434.00	0.0093
1435.00	0.0095
1436.00	0.0095
1437.00	0.0090
1438.00	0.0089
1439.00	0.0089
1440.00	0.0087
1441.00	0.0084
1442.00	0.0086
1443.00	0.0086
1444.00	0.0086
1445.00	0.0085
1446.00	0.0086
1447.00	0.0084
1448.00	0.0087
1449.00	0.0088
1450.00	0.0089
1451.00	0.0089
1452.00	0.0089
1453.00	0.0086
1454.00	0.0084
1455.00	0.0082
1456.00	0.0083
1457.00	0.0086
1458.00	0.0090
1459.00	0.0090
1460.00	0.0090
1461.00	0.0089
1462.00	0.0089
1463.00	0.0088
1464.00	0.0087
1465.00	0.0086
1466.00	0.0086
1467.00	0.0083
1468.00	0.0080
1469.00	0.0080
1470.00	0.0084
1471.00	0.0088
1472.00	0.0088
1473.00	0.0090
1474.00	0.0092
1475.00	0.0091
1476.00	0.0085
1477.00	0.0085
1478.00	0.0080
1479.00	0.0078
1480.00	0.0077
1481.00	0.0080
1482.00	0.0079
1483.00	0.0087
1484.00	0.0087
1485.00	0.0086
1486.00	0.0082
1487.00	0.0083
1488.00	0.0080
1489.00	0.0079
1490.00	0.0078
1491.00	0.0079
1492.00	0.0080
1493.00	0.0077
1494.00	0.0078
1495.00	0.0080
1496.00	0.0081
1497.00	0.0082
1498.00	0.0081
1499.00	0.0080
1500.00	0.0081
1501.00	0.0081
1502.00	0.0079
1503.00	0.0080
1504.00	0.0079
1505.00	0.0080
1506.00	0.0083
1507.00	0.0085
1508.00	0.0087
1509.00	0.0088
1510.00	0.0085
1511.00	0.0084
1512.00	0.0084
1513.00	0.0082
1514.00	0.0089
1515.00	0.0090
1516.00	0.0087
1517.00	0.0086
1518.00	0.0088
1519.00	0.0082
1520.00	0.0080
1521.00	0.0082
1522.00	0.0082
1523.00	0.0082
1524.00	0.0082
1525.00	0.0084
1526.00	0.0083
1527.00	0.0083
1528.00	0.0080
1529.00	0.0074
1530.00	0.0073
1531.00	0.0073
1532.00	0.0073
1533.00	0.0072
1534.00	0.0076
1535.00	0.0077
1536.00	0.0077
1537.00	0.0078
1538.00	0.0079
1539.00	0.0079
1540.00	0.0078
1541.00	0.0078
1542.00	0.0077
1543.00	0.0078
1544.00	0.0078
1545.00	0.0080
1546.00	0.0080
1547.00	0.0080
1548.00	0.0081
1549.00	0.0083
1550.00	0.0082
1551.00	0.0081
1552.00	0.0081
1553.00	0.0080
1554.00	0.0081
1555.00	0.0075
1556.00	0.0073
1557.00	0.0072
1558.00	0.0071
1559.00	0.0070
1560.00	0.0075
1561.00	0.0079
1562.00	0.0080
1563.00	0.0082
1564.00	0.0082
1565.00	0.0082
1566.00	0.0077
1567.00	0.0074
1568.00	0.0072
1569.00	0.0072
1570.00	0.0072
1571.00	0.0077
1572.00	0.0079
1573.00	0.0080
1574.00	0.0081
1575.00	0.0081
1576.00	0.0080
1577.00	0.0080
1578.00	0.0083
1579.00	0.0082
1580.00	0.0081
1581.00	0.0079
1582.00	0.0079
1583.00	0.0079
1584.00	0.0080
1585.00	0.0081
1586.00	0.0082
1587.00	0.0083
1588.00	0.0084
1589.00	0.0085
1590.00	0.0082
1591.00	0.0082
1592.00	0.0083
1593.00	0.0079
1594.00	0.0079
1595.00	0.0082
1596.00	0.0084
1597.00	0.0083
1598.00	0.0083
1599.00	0.0084
1600.00	0.0085
1601.00	0.0085
1602.00	0.0086
1603.00	0.0087
1604.00	0.0086
1605.00	0.0087
1606.00	0.0084
1607.00	0.0081
1608.00	0.0081
1609.00	0.0082
1610.00	0.0080
1611.00	0.0082
1612.00	0.0082
1613.00	0.0081
1614.00	0.0083
1615.00	0.0085
1616.00	0.0085
1617.00	0.0090
1618.00	0.0090
1619.00	0.0088
1620.00	0.0086
1621.00	0.0083
1622.00	0.0082
1623.00	0.0080
1624.00	0.0083
1625.00	0.0086
1626.00	0.0090
1627.00	0.0092
1628.00	0.0094
1629.00	0.0092
1630.00	0.0089
1631.00	0.0089
1632.00	0.0084
1633.00	0.0085
1634.00	0.0083
1635.00	0.0084
1636.00	0.0082
1637.00	0.0084
1638.00	0.0083
1639.00	0.0080
1640.00	0.0081
1641.00	0.0079
1642.00	0.0078
1643.00	0.0076
1644.00	0.0076
1645.00	0.0070
1646.00	0.0067
1647.00	0.0063
1648.00	0.0061
1649.00	0.0057
1650.00	0.0053
1651.00	0.0052
1652.00	0.0047
1653.00	0.0043
1654.00	0.0040
1655.00	0.0037
1656.00	0.0033
1657.00	0.0031
1658.00	0.0029
1659.00	0.0028
1660.00	0.0028
1661.00	0.0030
1662.00	0.0031
1663.00	0.0031
1664.00	0.0030
1665.00	0.0029
1666.00	0.0028
1667.00	0.0027
1668.00	0.0027
1669.00	0.0028
1670.00	0.0029
1671.00	0.0027
1672.00	0.0027
1673.00	0.0027
1674.00	0.0027
1675.00	0.0026
1676.00	0.0028
1677.00	0.0028
1678.00	0.0024
1679.00	0.0023
1680.00	0.0022
1681.00	0.0022
1682.00	0.0022
1683.00	0.0025
1684.00	0.0022
1685.00	0.0023
1686.00	0.0021
1687.00	0.0021
1688.00	0.0021
1689.00	0.0024
1690.00	0.0024
1691.00	0.0021
1692.00	0.0020
1693.00	0.0019
1694.00	0.0019
1695.00	0.0018
1696.00	0.0020
1697.00	0.0021
1698.00	0.0024
1699.00	0.0026
1700.00	0.0025
1701.00	0.0027
1702.00	0.0028
1703.00	0.0027
1704.00	0.0024
1705.00	0.0024
1706.00	0.0024
1707.00	0.0022
1708.00	0.0021
1709.00	0.0022
1710.00	0.0023
1711.00	0.0022
1712.00	0.0026
1713.00	0.0028
1714.00	0.0029
1715.00	0.0031
1716.00	0.0032
1717.00	0.0030
1718.00	0.0027
1719.00	0.0028
1720.00	0.0028
1721.00	0.0025
1722.00	0.0026
1723.00	0.0027
1724.00	0.0022
1725.00	0.0022
1726.00	0.0024
1727.00	0.0024
1728.00	0.0026
1729.00	0.0029
1730.00	0.0031
1731.00	0.0030
1732.00	0.0026
1733.00	0.0026
1734.00	0.0025
1735.00	0.0026
1736.00	0.0028
1737.00	0.0031
1738.00	0.0029
1739.00	0.0030
1740.00	0.0030
1741.00	0.0029
1742.00	0.0029
1743.00	0.0030
1744.00	0.0029
1745.00	0.0027
1746.00	0.0027
1747.00	0.0026
1748.00	0.0027
1749.00	0.0026
1750.00	0.0028
1751.00	0.0026
1752.00	0.0027
1753.00	0.0029
1754.00	0.0030
1755.00	0.0031
1756.00	0.0033
1757.00	0.0034
1758.00	0.0032
1759.00	0.0030
1760.00	0.0027
1761.00	0.0027
1762.00	0.0023
1763.00	0.0025
1764.00	0.0028
1765.00	0.0029
1766.00	0.0029
1767.00	0.0032
1768.00	0.0034
1769.00	0.0033
1770.00	0.0029
1771.00	0.0031
1772.00	0.0030
1773.00	0.0025
1774.00	0.0026
1775.00	0.0029
1776.00	0.0029
1777.00	0.0029
1778.00	0.0030
1779.00	0.0027
1780.00	0.0028
1781.00	0.0028
1782.00	0.0030
1783.00	0.0030
1784.00	0.0033
1785.00	0.0033
1786.00	0.0032
1787.00	0.0032
1788.00	0.0034
1789.00	0.0032
1790.00	0.0033
1791.00	0.0032
1792.00	0.0030
1793.00	0.0027
1794.00	0.0029
1795.00	0.0028
1796.00	0.0030
1797.00	0.0028
1798.00	0.0026
1799.00	0.0022
1800.00	0.0021
1801.00	0.0020
1802.00	0.0023
1803.00	0.0029
1804.00	0.0032
1805.00	0.0034
1806.00	0.0033
1807.00	0.0033
1808.00	0.0034
1809.00	0.0032
1810.00	0.0033
1811.00	0.0034
1812.00	0.0035
1813.00	0.0032
1814.00	0.0029
1815.00	0.0027
1816.00	0.0026
1817.00	0.0025
1818.00	0.0026
1819.00	0.0029
1820.00	0.0028
1821.00	0.0029
1822.00	0.0030
1823.00	0.0031
1824.00	0.0033
1825.00	0.0037
1826.00	0.0040
1827.00	0.0039
1828.00	0.0039
1829.00	0.0038
1830.00	0.0037
1831.00	0.0036
1832.00	0.0037
1833.00	0.0037
1834.00	0.0037
1835.00	0.0034
1836.00	0.0033
1837.00	0.0033
1838.00	0.0032
1839.00	0.0032
1840.00	0.0031
1841.00	0.0030
1842.00	0.0027
1843.00	0.0029
1844.00	0.0028
1845.00	0.0033
1846.00	0.0032
1847.00	0.0032
1848.00	0.0028
1849.00	0.0024
1850.00	0.0021
1851.00	0.0023
1852.00	0.0023
1853.00	0.0026
1854.00	0.0031
1855.00	0.0034
1856.00	0.0035
1857.00	0.0038
1858.00	0.0038
1859.00	0.0037
1860.00	0.0036
1861.00	0.0035
1862.00	0.0031
1863.00	0.0030
1864.00	0.0029
1865.00	0.0028
1866.00	0.0026
1867.00	0.0028
1868.00	0.0030
1869.00	0.0032
1870.00	0.0033
1871.00	0.0034
1872.00	0.0035
1873.00	0.0033
1874.00	0.0033
1875.00	0.0032
1876.00	0.0034
1877.00	0.0034
1878.00	0.0029
1879.00	0.0028
1880.00	0.0028
1881.00	0.0028
1882.00	0.0026
1883.00	0.0030
1884.00	0.0027
1885.00	0.0025
1886.00	0.0024
1887.00	0.0025
1888.00	0.0022
1889.00	0.0024
1890.00	0.0025
1891.00	0.0025
1892.00	0.0022
1893.00	0.0025
1894.00	0.0027
1895.00	0.0024
1896.00	0.0025
1897.00	0.0029
1898.00	0.0031
1899.00	0.0029
1900.00	0.0030
1901.00	0.0031
1902.00	0.0033
1903.00	0.0032
1904.00	0.0033
1905.00	0.0033
1906.00	0.0032
1907.00	0.0027
1908.00	0.0025
1909.00	0.0025
1910.00	0.0026
1911.00	0.0028
1912.00	0.0029
1913.00	0.0028
1914.00	0.0027
1915.00	0.0029
1916.00	0.0030
1917.00	0.0033
1918.00	0.0034
1919.00	0.0034
1920.00	0.0033
1921.00	0.0031
1922.00	0.0030
1923.00	0.0032
1924.00	0.0033
1925.00	0.0033
1926.00	0.0036
1927.00	0.0036
1928.00	0.0035
1929.00	0.0032
1930.00	0.0031
1931.00	0.0030
1932.00	0.0029
1933.00	0.0029
1934.00	0.0029
1935.00	0.0026
1936.00	0.0024
1937.00	0.0025
1938.00	0.0025
1939.00	0.0026
1940.00	0.0030
1941.00	0.0033
1942.00	0.0032
1943.00	0.0032
1944.00	0.0032
1945.00	0.0028
1946.00	0.0028
1947.00	0.0027
1948.00	0.0025
1949.00	0.0027
1950.00	0.0030
1951.00	0.0024
1952.00	0.0025
1953.00	0.0028
1954.00	0.0030
1955.00	0.0030
1956.00	0.0034
1957.00	0.0034
1958.00	0.0032
1959.00	0.0031
1960.00	0.0033
1961.00	0.0035
1962.00	0.0035
1963.00	0.0035
1964.00	0.0033
1965.00	0.0030
1966.00	0.0027
1967.00	0.0027
1968.00	0.0029
1969.00	0.0030
1970.00	0.0029
1971.00	0.0031
1972.00	0.0029
1973.00	0.0025
1974.00	0.0026
1975.00	0.0026
1976.00	0.0025
1977.00	0.0026
1978.00	0.0028
1979.00	0.0028
1980.00	0.0028
1981.00	0.0024
1982.00	0.0025
1983.00	0.0026
1984.00	0.0027
1985.00	0.0030
1986.00	0.0031
1987.00	0.0031
1988.00	0.0029
1989.00	0.0030
1990.00	0.0030
1991.00	0.0031
1992.00	0.0031
1993.00	0.0035
1994.00	0.0032
1995.00	0.0030
1996.00	0.0030
1997.00	0.0030
1998.00	0.0030
1999.00	0.0030
2000.00	0.0033
2001.00	0.0037
2002.00	0.0038
2003.00	0.0036
2004.00	0.0035
2005.00	0.0034
2006.00	0.0034
2007.00	0.0033
2008.00	0.0033
2009.00	0.0035
2010.00	0.0033
2011.00	0.0027
2012.00	0.0025
2013.00	0.0027
2014.00	0.0025
2015.00	0.0027
2016.00	0.0028
2017.00	0.0029
2018.00	0.0029
2019.00	0.0029
2020.00	0.0029
2021.00	0.0031
2022.00	0.0028
2023.00	0.0029
2024.00	0.0030
2025.00	0.0028
2026.00	0.0026
2027.00	0.0026
2028.00	0.0021
2029.00	0.0018
2030.00	0.0022
2031.00	0.0023
2032.00	0.0027
2033.00	0.0029
2034.00	0.0027
2035.00	0.0027
2036.00	0.0030
2037.00	0.0030
2038.00	0.0031
2039.00	0.0033
2040.00	0.0033
2041.00	0.0030
2042.00	0.0026
2043.00	0.0024
2044.00	0.0028
2045.00	0.0029
2046.00	0.0030
2047.00	0.0033
2048.00	0.0029
2049.00	0.0027
2050.00	0.0025
2051.00	0.0025
2052.00	0.0026
2053.00	0.0032
2054.00	0.0033
2055.00	0.0036
2056.00	0.0037
2057.00	0.0036
2058.00	0.0034
2059.00	0.0032
2060.00	0.0032
2061.00	0.0031
2062.00	0.0033
2063.00	0.0036
2064.00	0.0035
2065.00	0.0033
2066.00	0.0032
2067.00	0.0031
2068.00	0.0031
2069.00	0.0033
2070.00	0.0035
2071.00	0.0036
2072.00	0.0034
2073.00	0.0030
2074.00	0.0028
2075.00	0.0027
2076.00	0.0023
2077.00	0.0023
2078.00	0.0027
2079.00	0.0025
2080.00	0.0021
2081.00	0.0020
2082.00	0.0022
2083.00	0.0023
2084.00	0.0026
2085.00	0.0031
2086.00	0.0036
2087.00	0.0035
2088.00	0.0031
2089.00	0.0027
2090.00	0.0029
2091.00	0.0027
2092.00	0.0025
2093.00	0.0022
2094.00	0.0023
2095.00	0.0020
2096.00	0.0019
2097.00	0.0015
2098.00	0.0019
2099.00	0.0019
2100.00	0.0022
2101.00	0.0021
2102.00	0.0024
2103.00	0.0023
2104.00	0.0025
2105.00	0.0020
2106.00	0.0019
2107.00	0.0020
2108.00	0.0019
2109.00	0.0021
2110.00	0.0023
2111.00	0.0025
2112.00	0.0028
2113.00	0.0027
2114.00	0.0026
2115.00	0.0026
2116.00	0.0025
2117.00	0.0021
2118.00	0.0023
2119.00	0.0021
2120.00	0.0022
2121.00	0.0020
2122.00	0.0022
2123.00	0.0022
2124.00	0.0023
2125.00	0.0021
2126.00	0.0025
2127.00	0.0027
2128.00	0.0029
2129.00	0.0030
2130.00	0.0034
2131.00	0.0031
2132.00	0.0031
2133.00	0.0031
2134.00	0.0031
2135.00	0.0032
2136.00	0.0032
2137.00	0.0031
2138.00	0.0028
2139.00	0.0031
2140.00	0.0028
2141.00	0.0029
2142.00	0.0031
2143.00	0.0033
2144.00	0.0030
2145.00	0.0034
2146.00	0.0031
2147.00	0.0029
2148.00	0.0027
2149.00	0.0025
2150.00	0.0021
2151.00	0.0023
2152.00	0.0022
2153.00	0.0020
2154.00	0.0020
2155.00	0.0021
2156.00	0.0019
2157.00	0.0019
2158.00	0.0021
2159.00	0.0022
2160.00	0.0018
2161.00	0.0021
2162.00	0.0021
2163.00	0.0022
2164.00	0.0021
2165.00	0.0028
2166.00	0.0029
2167.00	0.0031
2168.00	0.0033
2169.00	0.0030
2170.00	0.0024
2171.00	0.0022
2172.00	0.0026
2173.00	0.0025
2174.00	0.0028
2175.00	0.0029
2176.00	0.0028
2177.00	0.0025
2178.00	0.0025
2179.00	0.0023
2180.00	0.0026
2181.00	0.0029
2182.00	0.0027
2183.00	0.0025
2184.00	0.0029
2185.00	0.0027
2186.00	0.0025
2187.00	0.0020
2188.00	0.0020
2189.00	0.0022
2190.00	0.0023
2191.00	0.0021
2192.00	0.0025
2193.00	0.0023
2194.00	0.0014
2195.00	0.0011
2196.00	0.0008
2197.00	0.0007
2198.00	0.0005
2199.00	0.0008
2200.00	0.0006
2201.00	0.0011
2202.00	0.0011
2203.00	0.0012
2204.00	0.0011
2205.00	0.0009
2206.00	0.0006
2207.00	0.0006
2208.00	0.0003
2209.00	0.0003
2210.00	0.0004
2211.00	0.0003
2212.00	0.0001
2213.00	0.0001
2214.00	0.0004
2215.00	0.0005
2216.00	0.0004
2217.00	0.0007
2218.00	0.0009
2219.00	0.0003
2220.00	0.0001
2221.00	-0.0003
2222.00	-0.0008
2223.00	-0.0006
2224.00	-0.0002
2225.00	-0.0002
2226.00	0.0002
2227.00	0.0003
2228.00	-0.0001
2229.00	-0.0007
2230.00	-0.0010
2231.00	-0.0008
2232.00	-0.0004
2233.00	0.0000
2234.00	0.0007
2235.00	0.0013
2236.00	0.0014
2237.00	0.0011
2238.00	0.0008
2239.00	0.0008
2240.00	0.0010
2241.00	0.0013
2242.00	0.0013
2243.00	0.0021
2244.00	0.0023
2245.00	0.0023
2246.00	0.0019
2247.00	0.0021
2248.00	0.0021
2249.00	0.0021
2250.00	0.0020
2251.00	0.0022
2252.00	0.0026
2253.00	0.0025
2254.00	0.0025
2255.00	0.0025
2256.00	0.0024
2257.00	0.0025
2258.00	0.0025
2259.00	0.0023
2260.00	0.0022
2261.00	0.0024
2262.00	0.0021
2263.00	0.0021
2264.00	0.0023
2265.00	0.0025
2266.00	0.0025
2267.00	0.0027
2268.00	0.0025
2269.00	0.0026
2270.00	0.0026
2271.00	0.0020
2272.00	0.0017
2273.00	0.0012
2274.00	0.0008
2275.00	0.0008
2276.00	0.0012
2277.00	0.0015
2278.00	0.0019
2279.00	0.0020
2280.00	0.0019
2281.00	0.0017
2282.00	0.0015
2283.00	0.0013
2284.00	0.0014
2285.00	0.0015
2286.00	0.0019
2287.00	0.0022
2288.00	0.0023
2289.00	0.0023
2290.00	0.0025
2291.00	0.0021
2292.00	0.0022
2293.00	0.0024
2294.00	0.0024
2295.00	0.0025
2296.00	0.0026
2297.00	0.0024
2298.00	0.0023
2299.00	0.0024
2300.00	0.0020
2301.00	0.0024
2302.00	0.0023
2303.00	0.0021
2304.00	0.0019
2305.00	0.0021
2306.00	0.0019
2307.00	0.0020
2308.00	0.0022
2309.00	0.0023
2310.00	0.0021
2311.00	0.0020
2312.00	0.0018
2313.00	0.0018
2314.00	0.0017
2315.00	0.0020
2316.00	0.0022
2317.00	0.0021
2318.00	0.0023
2319.00	0.0022
2320.00	0.0025
2321.00	0.0027
2322.00	0.0027
2323.00	0.0031
2324.00	0.0033
2325.00	0.0031
2326.00	0.0029
2327.00	0.0028
2328.00	0.0022
2329.00	0.0023
2330.00	0.0025
2331.00	0.0024
2332.00	0.0026
2333.00	0.0026
2334.00	0.0020
2335.00	0.0017
2336.00	0.0017
2337.00	0.0015
2338.00	0.0020
2339.00	0.0024
2340.00	0.0024
2341.00	0.0024
2342.00	0.0025
2343.00	0.0024
2344.00	0.0023
2345.00	0.0023
2346.00	0.0022
2347.00	0.0021
2348.00	0.0020
2349.00	0.0021
2350.00	0.0022
2351.00	0.0026
2352.00	0.0030
2353.00	0.0029
2354.00	0.0030
2355.00	0.0032
2356.00	0.0028
2357.00	0.0028
2358.00	0.0031
2359.00	0.0030
2360.00	0.0027
2361.00	0.0030
2362.00	0.0027
2363.00	0.0027
2364.00	0.0026
2365.00	0.0025
2366.00	0.0024
2367.00	0.0026
2368.00	0.0024
2369.00	0.0025
2370.00	0.0028
2371.00	0.0030
2372.00	0.0025
2373.00	0.0022
2374.00	0.0019
2375.00	0.0017
2376.00	0.0013
2377.00	0.0017
2378.00	0.0019
2379.00	0.0024
2380.00	0.0025
2381.00	0.0026
2382.00	0.0024
2383.00	0.0028
2384.00	0.0023
2385.00	0.0025
2386.00	0.0028
2387.00	0.0030
2388.00	0.0029
2389.00	0.0032
2390.00	0.0032
2391.00	0.0029
2392.00	0.0027
2393.00	0.0025
2394.00	0.0018
2395.00	0.0018
2396.00	0.0018
2397.00	0.0022
2398.00	0.0023
2399.00	0.0034
2400.00	0.0035
2401.00	0.0036
2402.00	0.0032
2403.00	0.0033
2404.00	0.0027
2405.00	0.0025
2406.00	0.0026
2407.00	0.0024
2408.00	0.0023
2409.00	0.0026
2410.00	0.0026
2411.00	0.0025
2412.00	0.0029
2413.00	0.0029
2414.00	0.0028
2415.00	0.0029
2416.00	0.0025
2417.00	0.0025
2418.00	0.0024
2419.00	0.0024
2420.00	0.0021
2421.00	0.0020
2422.00	0.0020
2423.00	0.0018
2424.00	0.0018
2425.00	0.0018
2426.00	0.0019
2427.00	0.0018
2428.00	0.0020
2429.00	0.0023
2430.00	0.0024
2431.00	0.0024
2432.00	0.0020
2433.00	0.0021
2434.00	0.0018
2435.00	0.0016
2436.00	0.0018
2437.00	0.0021
2438.00	0.0019
2439.00	0.0025
2440.00	0.0026
2441.00	0.0025
2442.00	0.0025
2443.00	0.0025
2444.00	0.0020
2445.00	0.0024
2446.00	0.0024
2447.00	0.0024
2448.00	0.0025
2449.00	0.0024
2450.00	0.0018
2451.00	0.0022
2452.00	0.0023
2453.00	0.0024
2454.00	0.0020
2455.00	0.0019
2456.00	0.0016
2457.00	0.0013
2458.00	0.0013
2459.00	0.0023
2460.00	0.0023
2461.00	0.0018
2462.00	0.0017
2463.00	0.0014
2464.00	0.0007
2465.00	0.0007
2466.00	0.0013
2467.00	0.0012
2468.00	0.0016
2469.00	0.0023
2470.00	0.0027
2471.00	0.0024
2472.00	0.0026
2473.00	0.0023
2474.00	0.0015
2475.00	0.0014
2476.00	0.0017
2477.00	0.0016
2478.00	0.0018
2479.00	0.0019
2480.00	0.0014
2481.00	0.0012
2482.00	0.0007
2483.00	0.0004
2484.00	0.0005
2485.00	0.0008
2486.00	0.0008
2487.00	0.0018
2488.00	0.0020
2489.00	0.0020
2490.00	0.0020
2491.00	0.0019
2492.00	0.0014
2493.00	0.0010
2494.00	0.0011
2495.00	0.0008
2496.00	0.0008
2497.00	0.0010
2498.00	0.0007
2499.00	0.0009
2500.00	0.0014
2501.00	0.0016
2502.00	0.0017
2503.00	0.0014
2504.00	0.0020
2505.00	0.0018
2506.00	0.0020
2507.00	0.0018
2508.00	0.0015
2509.00	0.0016
2510.00	0.0018
2511.00	0.0019
2512.00	0.0019
2513.00	0.0017
2514.00	0.0018
2515.00	0.0018
2516.00	0.0018
2517.00	0.0020
2518.00	0.0020
2519.00	0.0018
2520.00	0.0018
2521.00	0.0018
2522.00	0.0016
2523.00	0.0015
2524.00	0.0013
2525.00	0.0011
2526.00	0.0013
2527.00	0.0014
2528.00	0.0016
2529.00	0.0019
2530.00	0.0018
2531.00	0.0018
2532.00	0.0017
2533.00	0.0017
2534.00	0.0018
2535.00	0.0015
2536.00	0.0015
2537.00	0.0012
2538.00	0.0013
2539.00	0.0012
2540.00	0.0013
2541.00	0.0011
2542.00	0.0011
2543.00	0.0010
2544.00	0.0014
2545.00	0.0014
2546.00	0.0012
2547.00	0.0012
2548.00	0.0012
2549.00	0.0009
2550.00	0.0008
2551.00	0.0007
2552.00	0.0005
2553.00	0.0002
2554.00	-0.0005
2555.00	-0.0008
2556.00	-0.0006
2557.00	-0.0007
2558.00	-0.0008
2559.00	-0.0008
2560.00	-0.0004
2561.00	0.0002
2562.00	0.0005
2563.00	0.0003
2564.00	0.0003
2565.00	0.0005
2566.00	0.0008
2567.00	0.0004
2568.00	0.0003
2569.00	0.0002
2570.00	0.0005
2571.00	0.0003
2572.00	0.0002
2573.00	0.0004
2574.00	0.0005
2575.00	0.0003
2576.00	0.0004
2577.00	-0.0001
2578.00	0.0001
2579.00	-0.0004
2580.00	-0.0009
2581.00	-0.0011
2582.00	-0.0013
2583.00	-0.0020
2584.00	-0.0018
2585.00	-0.0022
2586.00	-0.0020
2587.00	-0.0016
2588.00	-0.0014
2589.00	-0.0010
2590.00	-0.0009
2591.00	-0.0007
2592.00	-0.0007
2593.00	-0.0007
2594.00	-0.0015
2595.00	-0.0016
2596.00	-0.0021
2597.00	-0.0021
2598.00	-0.0026
2599.00	-0.0026
2600.00	-0.0027
2601.00	-0.0027
2602.00	-0.0031
2603.00	-0.0028
2604.00	-0.0025
2605.00	-0.0029
2606.00	-0.0027
2607.00	-0.0021
2608.00	-0.0021
2609.00	-0.0015
2610.00	-0.0009
2611.00	-0.0010
2612.00	-0.0004
2613.00	-0.0004
2614.00	-0.0008
2615.00	-0.0004
2616.00	-0.0005
2617.00	-0.0007
2618.00	-0.0006
2619.00	-0.0003
2620.00	-0.0005
2621.00	-0.0005
2622.00	-0.0007
2623.00	-0.0011
2624.00	-0.0015
2625.00	-0.0013
2626.00	-0.0016
2627.00	-0.0014
2628.00	-0.0015
2629.00	-0.0014
2630.00	-0.0010
2631.00	-0.0006
2632.00	-0.0006
2633.00	-0.0004
2634.00	-0.0003
2635.00	-0.0001
2636.00	-0.0000
2637.00	-0.0000
2638.00	-0.0003
2639.00	-0.0004
2640.00	-0.0006
2641.00	-0.0005
2642.00	-0.0009
2643.00	-0.0009
2644.00	-0.0010
2645.00	-0.0011
2646.00	-0.0013
2647.00	-0.0013
2648.00	-0.0018
2649.00	-0.0017
2650.00	-0.0024
2651.00	-0.0028
2652.00	-0.0032
2653.00	-0.0035
2654.00	-0.0043
2655.00	-0.0046
2656.00	-0.0055
2657.00	-0.0056
2658.00	-0.0061
2659.00	-0.0065
2660.00	-0.0070
2661.00	-0.0073
2662.00	-0.0084
2663.00	-0.0081
2664.00	-0.0080
2665.00	-0.0076
2666.00	-0.0069
2667.00	-0.0062
2668.00	-0.0048
2669.00	-0.0031
2670.00	-0.0019
2671.00	-0.0009
2672.00	-0.0002
2673.00	0.0006
2674.00	0.0009
2675.00	0.0004
2676.00	0.0007
2677.00	-0.0001
2678.00	-0.0010
2679.00	-0.0025
2680.00	-0.0046
2681.00	-0.0062
2682.00	-0.0070
2683.00	-0.0086
2684.00	-0.0105
2685.00	-0.0120
2686.00	-0.0129
2687.00	-0.0144
2688.00	-0.0156
2689.00	-0.0171
2690.00	-0.0187
2691.00	-0.0203
2692.00	-0.0227
2693.00	-0.0256
2694.00	-0.0270
2695.00	-0.0304
2696.00	-0.0344
2697.00	-0.0383
2698.00	-0.0374
2699.00	-0.0367
2700.00	-0.0360
2701.00	-0.0374
2702.00	-0.0384
2703.00	-0.0401
2704.00	-0.0412
2705.00	-0.0423
2706.00	-0.0421
2707.00	-0.0457
2708.00	-0.0489
2709.00	-0.0524
2710.00	-0.0544
2711.00	-0.0579
2712.00	-0.0604
2713.00	-0.0627
2714.00	-0.0651
2715.00	-0.0689
2716.00	-0.0710
2717.00	-0.0750
2718.00	-0.0787
2719.00	-0.0823
2720.00	-0.0826
2721.00	-0.0858
2722.00	-0.0883
2723.00	-0.0901
2724.00	-0.0923
2725.00	-0.0941
2726.00	-0.0933
2727.00	-0.0941
2728.00	-0.0943
2729.00	-0.0928
2730.00	-0.0933
2731.00	-0.0956
2732.00	-0.0961
2733.00	-0.0953
2734.00	-0.0949
2735.00	-0.0949
2736.00	-0.0952
2737.00	-0.0952
2738.00	-0.0950
2739.00	-0.0933
2740.00	-0.0934
2741.00	-0.0904
2742.00	-0.0880
2743.00	-0.0867
2744.00	-0.0856
2745.00	-0.0853
2746.00	-0.0836
2747.00	-0.0818
2748.00	-0.0816
2749.00	-0.0812
2750.00	-0.0817
2751.00	-0.0816
2752.00	-0.0815
2753.00	-0.0825
2754.00	-0.0822
2755.00	-0.0818
2756.00	-0.0813
2757.00	-0.0805
2758.00	-0.0802
2759.00	-0.0790
2760.00	-0.0790
2761.00	-0.0778
2762.00	-0.0762
2763.00	-0.0759
2764.00	-0.0745
2765.00	-0.0733
2766.00	-0.0715
2767.00	-0.0700
2768.00	-0.0693
2769.00	-0.0682
2770.00	-0.0669
2771.00	-0.0647
2772.00	-0.0635
2773.00	-0.0625
2774.00	-0.0611
2775.00	-0.0602
2776.00	-0.0595
2777.00	-0.0589
2778.00	-0.0589
2779.00	-0.0581
2780.00	-0.0570
2781.00	-0.0572
2782.00	-0.0561
2783.00	-0.0556
2784.00	-0.0551
2785.00	-0.0550
2786.00	-0.0542
2787.00	-0.0531
2788.00	-0.0525
2789.00	-0.0508
2790.00	-0.0497
2791.00	-0.0488
2792.00	-0.0474
2793.00	-0.0471
2794.00	-0.0461
2795.00	-0.0452
2796.00	-0.0441
2797.00	-0.0432
2798.00	-0.0425
2799.00	-0.0415
2800.00	-0.0406
2801.00	-0.0400
2802.00	-0.0392
2803.00	-0.0382
2804.00	-0.0375
2805.00	-0.0369
2806.00	-0.0364
2807.00	-0.0355
2808.00	-0.0347
2809.00	-0.0343
2810.00	-0.0336
2811.00	-0.0330
2812.00	-0.0324
2813.00	-0.0319
2814.00	-0.0317
2815.00	-0.0308
2816.00	-0.0298
2817.00	-0.0290
2818.00	-0.0285
2819.00	-0.0279
2820.00	-0.0267
2821.00	-0.0260
2822.00	-0.0255
2823.00	-0.0247
2824.00	-0.0239
2825.00	-0.0228
2826.00	-0.0224
2827.00	-0.0220
2828.00	-0.0214
2829.00	-0.0207
2830.00	-0.0201
2831.00	-0.0198
2832.00	-0.0192
2833.00	-0.0187
2834.00	-0.0184
2835.00	-0.0180
2836.00	-0.0174
2837.00	-0.0168
2838.00	-0.0163
2839.00	-0.0161
2840.00	-0.0158
2841.00	-0.0154
2842.00	-0.0150
2843.00	-0.0147
2844.00	-0.0143
2845.00	-0.0138
2846.00	-0.0135
2847.00	-0.0132
2848.00	-0.0129
2849.00	-0.0124
2850.00	-0.0120
2851.00	-0.0115
2852.00	-0.0113
2853.00	-0.0109
2854.00	-0.0106
2855.00	-0.0103
2856.00	-0.0099
2857.00	-0.0096
2858.00	-0.0093
2859.00	-0.0092
2860.00	-0.0091
2861.00	-0.0085
2862.00	-0.0083
2863.00	-0.0081
2864.00	-0.0079
2865.00	-0.0078
2866.00	-0.0075
2867.00	-0.0073
2868.00	-0.0071
2869.00	-0.0070
2870.00	-0.0068
2871.00	-0.0065
2872.00	-0.0066
2873.00	-0.0064
2874.00	-0.0061
2875.00	-0.0059
2876.00	-0.0057
2877.00	-0.0056
2878.00	-0.0056
2879.00	-0.0052
2880.00	-0.0051
2881.00	-0.0049
2882.00	-0.0048
2883.00	-0.0046
2884.00	-0.0047
2885.00	-0.0047
2886.00	-0.0046
2887.00	-0.0045
2888.00	-0.0044
2889.00	-0.0042
2890.00	-0.0043
2891.00	-0.0042
2892.00	-0.0042
2893.00	-0.0042
2894.00	-0.0041
2895.00	-0.0040
2896.00	-0.0039
2897.00	-0.0040
2898.00	-0.0038
2899.00	-0.0037
2900.00	-0.0037
2901.00	-0.0035
2902.00	-0.0032
2903.00	-0.0031
2904.00	-0.0029
2905.00	-0.0029
2906.00	-0.0028
2907.00	-0.0027
2908.00	-0.0026
2909.00	-0.0025
2910.00	-0.0025
2911.00	-0.0023
2912.00	-0.0021
2913.00	-0.0023
2914.00	-0.0024
2915.00	-0.0024
2916.00	-0.0022
2917.00	-0.0020
2918.00	-0.0018
2919.00	-0.0017
2920.00	-0.0017
2921.00	-0.0017
2922.00	-0.0017
2923.00	-0.0019
2924.00	-0.0020
2925.00	-0.0019
2926.00	-0.0019
2927.00	-0.0019
2928.00	-0.0018
2929.00	-0.0017
2930.00	-0.0018
2931.00	-0.0018
2932.00	-0.0016
2933.00	-0.0016
2934.00	-0.0014
2935.00	-0.0012
2936.00	-0.0011
2937.00	-0.0010
2938.00	-0.0010
2939.00	-0.0011
2940.00	-0.0010
2941.00	-0.0006
2942.00	-0.0005
2943.00	-0.0006
2944.00	-0.0004
2945.00	-0.0006
2946.00	-0.0005
2947.00	-0.0006
2948.00	-0.0007
2949.00	-0.0006
2950.00	-0.0006
2951.00	-0.0005
2952.00	-0.0006
2953.00	-0.0005
2954.00	-0.0004
2955.00	-0.0001
2956.00	0.0001
2957.00	-0.0000
2958.00	0.0002
2959.00	0.0002
2960.00	-0.0002
2961.00	-0.0002
2962.00	-0.0001
2963.00	-0.0001
2964.00	0.0001
2965.00	0.0001
2966.00	0.0000
2967.00	0.0000
2968.00	0.0003
2969.00	0.0003
2970.00	0.0004
2971.00	0.0009
2972.00	0.0010
2973.00	0.0012
2974.00	0.0013
2975.00	0.0010
2976.00	0.0009
2977.00	0.0009
2978.00	0.0009
2979.00	0.0007
2980.00	0.0006
2981.00	0.0005
2982.00	0.0005
2983.00	0.0006
2984.00	0.0004
2985.00	0.0003
2986.00	0.0004
2987.00	0.0004
2988.00	0.0003
2989.00	0.0004
2990.00	0.0007
2991.00	0.0009
2992.00	0.0012
2993.00	0.0013
2994.00	0.0010
2995.00	0.0010
2996.00	0.0022
2997.00	0.0034
2998.00	0.0045
2999.00	0.0057
3000.00	0.0069
3001.00	0.0075
3002.00	0.0083
3003.00	0.0090
3004.00	0.0095
3005.00	0.0103
3006.00	0.0109
3007.00	0.0116
3008.00	0.0123
3009.00	0.0130
3010.00	0.0130
3011.00	0.0131
3012.00	0.0131
3013.00	0.0131
3014.00	0.0130
3015.00	0.0131
3016.00	0.0131
3017.00	0.0132
3018.00	0.0132
3019.00	0.0131
3020.00	0.0131
3021.00	0.0132
3022.00	0.0131
3023.00	0.0131
3024.00	0.0131
3025.00	0.0132
3026.00	0.0131
3027.00	0.0132
3028.00	0.0132
3029.00	0.0132
3030.00	0.0133
3031.00	0.0134
3032.00	0.0134
3033.00	0.0134
3034.00	0.0133
3035.00	0.0132
3036.00	0.0132
3037.00	0.0133
3038.00	0.0134
3039.00	0.0135
3040.00	0.0135
3041.00	0.0136
3042.00	0.0134
3043.00	0.0136
3044.00	0.0137
3045.00	0.0136
3046.00	0.0136
3047.00	0.0136
3048.00	0.0134
3049.00	0.0136
3050.00	0.0138
3051.00	0.0139
3052.00	0.0140
3053.00	0.0140
3054.00	0.0139
3055.00	0.0139
3056.00	0.0140
3057.00	0.0140
3058.00	0.0141
3059.00	0.0144
3060.00	0.0144
3061.00	0.0143
3062.00	0.0144
3063.00	0.0145
3064.00	0.0145
3065.00	0.0146
3066.00	0.0145
3067.00	0.0145
3068.00	0.0146
3069.00	0.0146
3070.00	0.0148
3071.00	0.0148
3072.00	0.0150
3073.00	0.0151
3074.00	0.0151
3075.00	0.0151
3076.00	0.0151
3077.00	0.0152
3078.00	0.0152
3079.00	0.0152
3080.00	0.0151
3081.00	0.0152
3082.00	0.0152
3083.00	0.0153
3084.00	0.0152
3085.00	0.0152
3086.00	0.0155
3087.00	0.0153
3088.00	0.0153
3089.00	0.0151
3090.00	0.0150
3091.00	0.0150
3092.00	0.0152
3093.00	0.0152
3094.00	0.0152
3095.00	0.0152
3096.00	0.0152
3097.00	0.0153
3098.00	0.0152
3099.00	0.0152
3100.00	0.0151
3101.00	0.0152
3102.00	0.0153
3103.00	0.0151
3104.00	0.0153
3105.00	0.0152
3106.00	0.0152
3107.00	0.0152
3108.00	0.0151
3109.00	0.0150
3110.00	0.0148
3111.00	0.0146
3112.00	0.0145
3113.00	0.0145
3114.00	0.0143
3115.00	0.0145
3116.00	0.0144
3117.00	0.0143
3118.00	0.0141
3119.00	0.0139
3120.00	0.0139
3121.00	0.0137
3122.00	0.0136
3123.00	0.0133
3124.00	0.0131
3125.00	0.0130
3126.00	0.0129
3127.00	0.0127
3128.00	0.0128
3129.00	0.0128
3130.00	0.0129
3131.00	0.0128
3132.00	0.0127
3133.00	0.0125
3134.00	0.0128
3135.00	0.0127
3136.00	0.0128
3137.00	0.0129
3138.00	0.0128
3139.00	0.0129
3140.00	0.0131
3141.00	0.0133
3142.00	0.0131
3143.00	0.0131
3144.00	0.0132
3145.00	0.0135
3146.00	0.0138
3147.00	0.0134
3148.00	0.0136
3149.00	0.0135
3150.00	0.0133
3151.00	0.0133
3152.00	0.0132
3153.00	0.0134
3154.00	0.0133
3155.00	0.0134
3156.00	0.0132
3157.00	0.0128
3158.00	0.0129
3159.00	0.0135
3160.00	0.0131
3161.00	0.0134
3162.00	0.0133
3163.00	0.0130
3164.00	0.0132
3165.00	0.0132
3166.00	0.0134
3167.00	0.0136
3168.00	0.0135
3169.00	0.0135
3170.00	0.0130
3171.00	0.0131
3172.00	0.0133
3173.00	0.0137
3174.00	0.0143
3175.00	0.0142
3176.00	0.0141
3177.00	0.0142
3178.00	0.0139
3179.00	0.0137
3180.00	0.0138
3181.00	0.0139
3182.00	0.0143
3183.00	0.0144
3184.00	0.0144
3185.00	0.0143
3186.00	0.0143
3187.00	0.0146
3188.00	0.0147
3189.00	0.0149
3190.00	0.0147
3191.00	0.0142
3192.00	0.0140
3193.00	0.0136
3194.00	0.0135
3195.00	0.0136
3196.00	0.0137
3197.00	0.0133
3198.00	0.0136
3199.00	0.0122
3200.00	0.0123
3201.00	0.0127
3202.00	0.0126
3203.00	0.0129
3204.00	0.0135
3205.00	0.0126
3206.00	0.0121
3207.00	0.0120
3208.00	0.0118
3209.00	0.0120
3210.00	0.0128
3211.00	0.0131
3212.00	0.0134
3213.00	0.0134
3214.00	0.0135
3215.00	0.0134
3216.00	0.0144
3217.00	0.0145
3218.00	0.0135
3219.00	0.0137
3220.00	0.0137
3221.00	0.0130
3222.00	0.0134
3223.00	0.0137
3224.00	0.0139
3225.00	0.0150
3226.00	0.0158
3227.00	0.0154
3228.00	0.0157
3229.00	0.0153
3230.00	0.0153
3231.00	0.0155
3232.00	0.0153
3233.00	0.0156
3234.00	0.0157
3235.00	0.0162
3236.00	0.0159
3237.00	0.0157
3238.00	0.0153
3239.00	0.0160
3240.00	0.0151
3241.00	0.0147
3242.00	0.0132
3243.00	0.0131
3244.00	0.0128
3245.00	0.0115
3246.00	0.0114
3247.00	0.0109
3248.00	0.0108
3249.00	0.0109
3250.00	0.0099
3251.00	0.0099
3252.00	0.0100
3253.00	0.0096
3254.00	0.0102
3255.00	0.0108
3256.00	0.0097
3257.00	0.0098
3258.00	0.0098
3259.00	0.0114
3260.00	0.0111
3261.00	0.0115
3262.00	0.0119
3263.00	0.0114
3264.00	0.0123
3265.00	0.0137
3266.00	0.0132
3267.00	0.0130
3268.00	0.0108
3269.00	0.0100
3270.00	0.0102
3271.00	0.0092
3272.00	0.0073
3273.00	0.0081
3274.00	0.0082
3275.00	0.0089
3276.00	0.0079
3277.00	0.0066
3278.00	0.0078
3279.00	0.0075
3280.00	0.0085
3281.00	0.0093
3282.00	0.0094
3283.00	0.0102
3284.00	0.0091
3285.00	0.0123
3286.00	0.0146
3287.00	0.0152
3288.00	0.0148
3289.00	0.0182
3290.00	0.0181
3291.00	0.0163
3292.00	0.0179
3293.00	0.0199
3294.00	0.0227
3295.00	0.0231
3296.00	0.0257
3297.00	0.0273
3298.00	0.0277
3299.00	0.0280
3300.00	0.0296
