"20-30mM-CF20mM - RawData"
"Wavelength nm."	"Abs."
300.00	0.1107
301.00	0.1115
302.00	0.1125
303.00	0.1137
304.00	0.1146
305.00	0.1151
306.00	0.1163
307.00	0.1176
308.00	0.1192
309.00	0.1209
310.00	0.1219
311.00	0.1229
312.00	0.1243
313.00	0.1256
314.00	0.1270
315.00	0.1292
316.00	0.1317
317.00	0.1337
318.00	0.1360
319.00	0.1379
320.00	0.1399
321.00	0.1418
322.00	0.1437
323.00	0.1456
324.00	0.1478
325.00	0.1500
326.00	0.1521
327.00	0.1543
328.00	0.1564
329.00	0.1585
330.00	0.1602
331.00	0.1620
332.00	0.1635
333.00	0.1655
334.00	0.1677
335.00	0.1701
336.00	0.1728
337.00	0.1758
338.00	0.1779
339.00	0.1801
340.00	0.1824
341.00	0.1845
342.00	0.1867
343.00	0.1891
344.00	0.1914
345.00	0.1932
346.00	0.1950
347.00	0.1966
348.00	0.1980
349.00	0.1992
350.00	0.2006
351.00	0.2019
352.00	0.2031
353.00	0.2044
354.00	0.2056
355.00	0.2067
356.00	0.2077
357.00	0.2087
358.00	0.2096
359.00	0.2105
360.00	0.2113
361.00	0.2119
362.00	0.2120
363.00	0.2130
364.00	0.2140
365.00	0.2151
366.00	0.2165
367.00	0.2183
368.00	0.2192
369.00	0.2203
370.00	0.2217
371.00	0.2223
372.00	0.2229
373.00	0.2233
374.00	0.2234
375.00	0.2232
376.00	0.2238
377.00	0.2245
378.00	0.2253
379.00	0.2261
380.00	0.2271
381.00	0.2281
382.00	0.2289
383.00	0.2302
384.00	0.2314
385.00	0.2325
386.00	0.2338
387.00	0.2352
388.00	0.2362
389.00	0.2374
390.00	0.2386
391.00	0.2396
392.00	0.2408
393.00	0.2419
394.00	0.2429
395.00	0.2439
396.00	0.2448
397.00	0.2455
398.00	0.2460
399.00	0.2468
400.00	0.2476
401.00	0.2487
402.00	0.2500
403.00	0.2515
404.00	0.2529
405.00	0.2543
406.00	0.2556
407.00	0.2569
408.00	0.2581
409.00	0.2593
410.00	0.2605
411.00	0.2617
412.00	0.2628
413.00	0.2637
414.00	0.2647
415.00	0.2653
416.00	0.2657
417.00	0.2660
418.00	0.2662
419.00	0.2659
420.00	0.2657
421.00	0.2653
422.00	0.2648
423.00	0.2642
424.00	0.2636
425.00	0.2629
426.00	0.2623
427.00	0.2617
428.00	0.2611
429.00	0.2604
430.00	0.2598
431.00	0.2592
432.00	0.2585
433.00	0.2580
434.00	0.2576
435.00	0.2574
436.00	0.2571
437.00	0.2569
438.00	0.2566
439.00	0.2563
440.00	0.2560
441.00	0.2555
442.00	0.2551
443.00	0.2548
444.00	0.2545
445.00	0.2542
446.00	0.2541
447.00	0.2542
448.00	0.2541
449.00	0.2541
450.00	0.2542
451.00	0.2547
452.00	0.2551
453.00	0.2558
454.00	0.2563
455.00	0.2569
456.00	0.2573
457.00	0.2579
458.00	0.2585
459.00	0.2593
460.00	0.2602
461.00	0.2611
462.00	0.2620
463.00	0.2627
464.00	0.2637
465.00	0.2644
466.00	0.2651
467.00	0.2658
468.00	0.2669
469.00	0.2677
470.00	0.2687
471.00	0.2695
472.00	0.2704
473.00	0.2712
474.00	0.2720
475.00	0.2729
476.00	0.2737
477.00	0.2746
478.00	0.2753
479.00	0.2760
480.00	0.2765
481.00	0.2771
482.00	0.2775
483.00	0.2780
484.00	0.2785
485.00	0.2789
486.00	0.2793
487.00	0.2797
488.00	0.2800
489.00	0.2802
490.00	0.2805
491.00	0.2807
492.00	0.2811
493.00	0.2815
494.00	0.2819
495.00	0.2822
496.00	0.2825
497.00	0.2827
498.00	0.2828
499.00	0.2829
500.00	0.2830
501.00	0.2832
502.00	0.2831
503.00	0.2832
504.00	0.2833
505.00	0.2835
506.00	0.2834
507.00	0.2832
508.00	0.2830
509.00	0.2826
510.00	0.2822
511.00	0.2819
512.00	0.2815
513.00	0.2810
514.00	0.2805
515.00	0.2800
516.00	0.2794
517.00	0.2786
518.00	0.2778
519.00	0.2769
520.00	0.2761
521.00	0.2753
522.00	0.2745
523.00	0.2738
524.00	0.2729
525.00	0.2719
526.00	0.2709
527.00	0.2699
528.00	0.2689
529.00	0.2689
530.00	0.2680
531.00	0.2668
532.00	0.2658
533.00	0.2648
534.00	0.2630
535.00	0.2624
536.00	0.2619
537.00	0.2614
538.00	0.2604
539.00	0.2595
540.00	0.2582
541.00	0.2567
542.00	0.2553
543.00	0.2543
544.00	0.2535
545.00	0.2525
546.00	0.2516
547.00	0.2507
548.00	0.2499
549.00	0.2488
550.00	0.2480
551.00	0.2471
552.00	0.2462
553.00	0.2453
554.00	0.2443
555.00	0.2433
556.00	0.2424
557.00	0.2414
558.00	0.2406
559.00	0.2398
560.00	0.2388
561.00	0.2378
562.00	0.2369
563.00	0.2361
564.00	0.2351
565.00	0.2343
566.00	0.2334
567.00	0.2324
568.00	0.2312
569.00	0.2302
570.00	0.2292
571.00	0.2282
572.00	0.2273
573.00	0.2263
574.00	0.2253
575.00	0.2241
576.00	0.2229
577.00	0.2217
578.00	0.2206
579.00	0.2194
580.00	0.2183
581.00	0.2174
582.00	0.2163
583.00	0.2152
584.00	0.2140
585.00	0.2129
586.00	0.2116
587.00	0.2104
588.00	0.2091
589.00	0.2079
590.00	0.2065
591.00	0.2053
592.00	0.2040
593.00	0.2028
594.00	0.2016
595.00	0.2003
596.00	0.1989
597.00	0.1975
598.00	0.1961
599.00	0.1949
600.00	0.1936
601.00	0.1925
602.00	0.1914
603.00	0.1903
604.00	0.1892
605.00	0.1881
606.00	0.1868
607.00	0.1855
608.00	0.1844
609.00	0.1834
610.00	0.1824
611.00	0.1814
612.00	0.1804
613.00	0.1792
614.00	0.1782
615.00	0.1772
616.00	0.1765
617.00	0.1757
618.00	0.1748
619.00	0.1739
620.00	0.1729
621.00	0.1720
622.00	0.1713
623.00	0.1708
624.00	0.1704
625.00	0.1698
626.00	0.1692
627.00	0.1685
628.00	0.1679
629.00	0.1673
630.00	0.1668
631.00	0.1664
632.00	0.1658
633.00	0.1652
634.00	0.1647
635.00	0.1643
636.00	0.1638
637.00	0.1636
638.00	0.1633
639.00	0.1630
640.00	0.1626
641.00	0.1622
642.00	0.1618
643.00	0.1616
644.00	0.1613
645.00	0.1611
646.00	0.1610
647.00	0.1610
648.00	0.1610
649.00	0.1611
650.00	0.1612
651.00	0.1613
652.00	0.1611
653.00	0.1608
654.00	0.1604
655.00	0.1603
656.00	0.1602
657.00	0.1606
658.00	0.1606
659.00	0.1610
660.00	0.1609
661.00	0.1609
662.00	0.1609
663.00	0.1609
664.00	0.1607
665.00	0.1609
666.00	0.1613
667.00	0.1612
668.00	0.1612
669.00	0.1613
670.00	0.1621
671.00	0.1620
672.00	0.1624
673.00	0.1629
674.00	0.1634
675.00	0.1631
676.00	0.1633
677.00	0.1633
678.00	0.1634
679.00	0.1635
680.00	0.1636
681.00	0.1639
682.00	0.1643
683.00	0.1647
684.00	0.1649
685.00	0.1650
686.00	0.1650
687.00	0.1651
688.00	0.1650
689.00	0.1652
690.00	0.1651
691.00	0.1655
692.00	0.1656
693.00	0.1659
694.00	0.1659
695.00	0.1663
696.00	0.1661
697.00	0.1659
698.00	0.1657
699.00	0.1656
700.00	0.1655
701.00	0.1654
702.00	0.1656
703.00	0.1660
704.00	0.1662
705.00	0.1663
706.00	0.1667
707.00	0.1667
708.00	0.1670
709.00	0.1672
710.00	0.1675
711.00	0.1677
712.00	0.1680
713.00	0.1679
714.00	0.1680
715.00	0.1684
716.00	0.1692
717.00	0.1690
718.00	0.1690
719.00	0.1690
720.00	0.1688
721.00	0.1681
722.00	0.1684
723.00	0.1685
724.00	0.1680
725.00	0.1685
726.00	0.1678
727.00	0.1680
728.00	0.1681
729.00	0.1687
730.00	0.1683
731.00	0.1694
732.00	0.1696
733.00	0.1699
734.00	0.1702
735.00	0.1706
736.00	0.1707
737.00	0.1710
738.00	0.1712
739.00	0.1717
740.00	0.1721
741.00	0.1726
742.00	0.1729
743.00	0.1731
744.00	0.1733
745.00	0.1735
746.00	0.1738
747.00	0.1737
748.00	0.1745
749.00	0.1749
750.00	0.1754
751.00	0.1758
752.00	0.1764
753.00	0.1763
754.00	0.1766
755.00	0.1768
756.00	0.1771
757.00	0.1776
758.00	0.1781
759.00	0.1782
760.00	0.1785
761.00	0.1787
762.00	0.1788
763.00	0.1789
764.00	0.1792
765.00	0.1795
766.00	0.1798
767.00	0.1798
768.00	0.1799
769.00	0.1798
770.00	0.1797
771.00	0.1793
772.00	0.1794
773.00	0.1797
774.00	0.1798
775.00	0.1797
776.00	0.1797
777.00	0.1791
778.00	0.1783
779.00	0.1776
780.00	0.1770
781.00	0.1762
782.00	0.1756
783.00	0.1751
784.00	0.1749
785.00	0.1748
786.00	0.1744
787.00	0.1741
788.00	0.1738
789.00	0.1733
790.00	0.1727
791.00	0.1722
792.00	0.1715
793.00	0.1709
794.00	0.1702
795.00	0.1693
796.00	0.1684
797.00	0.1670
798.00	0.1658
799.00	0.1647
800.00	0.1638
801.00	0.1629
802.00	0.1625
803.00	0.1618
804.00	0.1610
805.00	0.1603
806.00	0.1595
807.00	0.1589
808.00	0.1582
809.00	0.1577
810.00	0.1571
811.00	0.1567
812.00	0.1561
813.00	0.1555
814.00	0.1552
815.00	0.1549
816.00	0.1546
817.00	0.1546
818.00	0.1545
819.00	0.1543
820.00	0.1543
821.00	0.1542
822.00	0.1540
823.00	0.1538
824.00	0.1536
825.00	0.1535
826.00	0.1533
827.00	0.1533
828.00	0.1535
829.00	0.1538
830.00	0.1539
831.00	0.1544
832.00	0.1545
833.00	0.1547
834.00	0.1548
835.00	0.1550
836.00	0.1551
837.00	0.1553
838.00	0.1556
839.00	0.1558
840.00	0.1561
841.00	0.1564
842.00	0.1568
843.00	0.1571
844.00	0.1576
845.00	0.1579
846.00	0.1583
847.00	0.1590
848.00	0.1596
849.00	0.1599
850.00	0.1604
851.00	0.1608
852.00	0.1607
853.00	0.1608
854.00	0.1609
855.00	0.1611
856.00	0.1612
857.00	0.1613
858.00	0.1613
859.00	0.1613
860.00	0.1613
861.00	0.1612
862.00	0.1613
863.00	0.1614
864.00	0.1614
865.00	0.1612
866.00	0.1612
867.00	0.1611
868.00	0.1610
869.00	0.1609
870.00	0.1610
871.00	0.1609
872.00	0.1608
873.00	0.1609
874.00	0.1609
875.00	0.1608
876.00	0.1604
877.00	0.1600
878.00	0.1594
879.00	0.1587
880.00	0.1581
881.00	0.1576
882.00	0.1570
883.00	0.1565
884.00	0.1557
885.00	0.1549
886.00	0.1540
887.00	0.1531
888.00	0.1522
889.00	0.1512
890.00	0.1501
891.00	0.1494
892.00	0.1484
893.00	0.1477
894.00	0.1468
895.00	0.1459
896.00	0.1448
897.00	0.1439
898.00	0.1430
899.00	0.1421
900.00	0.1414
901.00	0.1404
902.00	0.1396
903.00	0.1389
904.00	0.1381
905.00	0.1372
906.00	0.1364
907.00	0.1356
908.00	0.1344
909.00	0.1336
910.00	0.1326
911.00	0.1319
912.00	0.1310
913.00	0.1303
914.00	0.1295
915.00	0.1289
916.00	0.1281
917.00	0.1273
918.00	0.1266
919.00	0.1258
920.00	0.1250
921.00	0.1242
922.00	0.1235
923.00	0.1226
924.00	0.1218
925.00	0.1211
926.00	0.1205
927.00	0.1198
928.00	0.1191
929.00	0.1185
930.00	0.1178
931.00	0.1170
932.00	0.1162
933.00	0.1154
934.00	0.1147
935.00	0.1141
936.00	0.1135
937.00	0.1127
938.00	0.1123
939.00	0.1114
940.00	0.1107
941.00	0.1101
942.00	0.1096
943.00	0.1088
944.00	0.1084
945.00	0.1078
946.00	0.1071
947.00	0.1065
948.00	0.1060
949.00	0.1053
950.00	0.1045
951.00	0.1040
952.00	0.1034
953.00	0.1027
954.00	0.1020
955.00	0.1014
956.00	0.1008
957.00	0.1000
958.00	0.0993
959.00	0.0987
960.00	0.0983
961.00	0.0975
962.00	0.0971
963.00	0.0968
964.00	0.0962
965.00	0.0955
966.00	0.0951
967.00	0.0944
968.00	0.0937
969.00	0.0931
970.00	0.0926
971.00	0.0920
972.00	0.0914
973.00	0.0908
974.00	0.0903
975.00	0.0898
976.00	0.0892
977.00	0.0888
978.00	0.0883
979.00	0.0877
980.00	0.0871
981.00	0.0866
982.00	0.0860
983.00	0.0856
984.00	0.0851
985.00	0.0845
986.00	0.0841
987.00	0.0835
988.00	0.0831
989.00	0.0826
990.00	0.0821
991.00	0.0814
992.00	0.0808
993.00	0.0802
994.00	0.0797
995.00	0.0793
996.00	0.0788
997.00	0.0784
998.00	0.0779
999.00	0.0775
1000.00	0.0768
1001.00	0.0761
1002.00	0.0756
1003.00	0.0749
1004.00	0.0744
1005.00	0.0739
1006.00	0.0737
1007.00	0.0730
1008.00	0.0722
1009.00	0.0717
1010.00	0.0713
1011.00	0.0706
1012.00	0.0702
1013.00	0.0703
1014.00	0.0696
1015.00	0.0691
1016.00	0.0686
1017.00	0.0684
1018.00	0.0679
1019.00	0.0679
1020.00	0.0676
1021.00	0.0674
1022.00	0.0668
1023.00	0.0661
1024.00	0.0656
1025.00	0.0650
1026.00	0.0646
1027.00	0.0641
1028.00	0.0639
1029.00	0.0634
1030.00	0.0631
1031.00	0.0628
1032.00	0.0626
1033.00	0.0621
1034.00	0.0618
1035.00	0.0613
1036.00	0.0609
1037.00	0.0603
1038.00	0.0599
1039.00	0.0597
1040.00	0.0593
1041.00	0.0591
1042.00	0.0588
1043.00	0.0585
1044.00	0.0582
1045.00	0.0580
1046.00	0.0576
1047.00	0.0574
1048.00	0.0565
1049.00	0.0562
1050.00	0.0557
1051.00	0.0553
1052.00	0.0550
1053.00	0.0551
1054.00	0.0547
1055.00	0.0545
1056.00	0.0542
1057.00	0.0540
1058.00	0.0542
1059.00	0.0540
1060.00	0.0535
1061.00	0.0533
1062.00	0.0528
1063.00	0.0522
1064.00	0.0520
1065.00	0.0518
1066.00	0.0515
1067.00	0.0514
1068.00	0.0512
1069.00	0.0508
1070.00	0.0505
1071.00	0.0502
1072.00	0.0497
1073.00	0.0493
1074.00	0.0492
1075.00	0.0490
1076.00	0.0489
1077.00	0.0488
1078.00	0.0487
1079.00	0.0484
1080.00	0.0482
1081.00	0.0473
1082.00	0.0472
1083.00	0.0473
1084.00	0.0467
1085.00	0.0464
1086.00	0.0468
1087.00	0.0466
1088.00	0.0459
1089.00	0.0463
1090.00	0.0462
1091.00	0.0460
1092.00	0.0459
1093.00	0.0456
1094.00	0.0453
1095.00	0.0450
1096.00	0.0450
1097.00	0.0447
1098.00	0.0448
1099.00	0.0445
1100.00	0.0446
1101.00	0.0443
1102.00	0.0440
1103.00	0.0438
1104.00	0.0437
1105.00	0.0435
1106.00	0.0434
1107.00	0.0434
1108.00	0.0433
1109.00	0.0434
1110.00	0.0432
1111.00	0.0431
1112.00	0.0430
1113.00	0.0428
1114.00	0.0426
1115.00	0.0427
1116.00	0.0424
1117.00	0.0423
1118.00	0.0422
1119.00	0.0421
1120.00	0.0418
1121.00	0.0418
1122.00	0.0417
1123.00	0.0416
1124.00	0.0415
1125.00	0.0414
1126.00	0.0412
1127.00	0.0412
1128.00	0.0411
1129.00	0.0412
1130.00	0.0410
1131.00	0.0411
1132.00	0.0410
1133.00	0.0410
1134.00	0.0409
1135.00	0.0409
1136.00	0.0407
1137.00	0.0406
1138.00	0.0405
1139.00	0.0403
1140.00	0.0402
1141.00	0.0400
1142.00	0.0397
1143.00	0.0397
1144.00	0.0399
1145.00	0.0396
1146.00	0.0397
1147.00	0.0398
1148.00	0.0397
1149.00	0.0396
1150.00	0.0397
1151.00	0.0398
1152.00	0.0397
1153.00	0.0396
1154.00	0.0396
1155.00	0.0396
1156.00	0.0396
1157.00	0.0396
1158.00	0.0396
1159.00	0.0396
1160.00	0.0398
1161.00	0.0395
1162.00	0.0395
1163.00	0.0396
1164.00	0.0397
1165.00	0.0392
1166.00	0.0393
1167.00	0.0393
1168.00	0.0393
1169.00	0.0392
1170.00	0.0395
1171.00	0.0395
1172.00	0.0395
1173.00	0.0394
1174.00	0.0394
1175.00	0.0395
1176.00	0.0392
1177.00	0.0393
1178.00	0.0393
1179.00	0.0393
1180.00	0.0392
1181.00	0.0393
1182.00	0.0392
1183.00	0.0392
1184.00	0.0391
1185.00	0.0389
1186.00	0.0391
1187.00	0.0392
1188.00	0.0393
1189.00	0.0393
1190.00	0.0395
1191.00	0.0395
1192.00	0.0393
1193.00	0.0393
1194.00	0.0396
1195.00	0.0399
1196.00	0.0398
1197.00	0.0399
1198.00	0.0397
1199.00	0.0394
1200.00	0.0392
1201.00	0.0393
1202.00	0.0395
1203.00	0.0399
1204.00	0.0402
1205.00	0.0402
1206.00	0.0403
1207.00	0.0403
1208.00	0.0402
1209.00	0.0399
1210.00	0.0400
1211.00	0.0400
1212.00	0.0401
1213.00	0.0402
1214.00	0.0402
1215.00	0.0402
1216.00	0.0402
1217.00	0.0402
1218.00	0.0402
1219.00	0.0403
1220.00	0.0404
1221.00	0.0409
1222.00	0.0408
1223.00	0.0404
1224.00	0.0407
1225.00	0.0406
1226.00	0.0402
1227.00	0.0404
1228.00	0.0409
1229.00	0.0407
1230.00	0.0407
1231.00	0.0406
1232.00	0.0406
1233.00	0.0406
1234.00	0.0407
1235.00	0.0409
1236.00	0.0411
1237.00	0.0411
1238.00	0.0411
1239.00	0.0413
1240.00	0.0412
1241.00	0.0413
1242.00	0.0413
1243.00	0.0415
1244.00	0.0415
1245.00	0.0415
1246.00	0.0416
1247.00	0.0418
1248.00	0.0418
1249.00	0.0417
1250.00	0.0420
1251.00	0.0420
1252.00	0.0419
1253.00	0.0419
1254.00	0.0418
1255.00	0.0417
1256.00	0.0417
1257.00	0.0419
1258.00	0.0421
1259.00	0.0425
1260.00	0.0424
1261.00	0.0426
1262.00	0.0427
1263.00	0.0428
1264.00	0.0426
1265.00	0.0427
1266.00	0.0427
1267.00	0.0428
1268.00	0.0423
1269.00	0.0421
1270.00	0.0424
1271.00	0.0425
1272.00	0.0425
1273.00	0.0432
1274.00	0.0437
1275.00	0.0438
1276.00	0.0439
1277.00	0.0439
1278.00	0.0438
1279.00	0.0438
1280.00	0.0439
1281.00	0.0440
1282.00	0.0442
1283.00	0.0443
1284.00	0.0445
1285.00	0.0445
1286.00	0.0445
1287.00	0.0445
1288.00	0.0444
1289.00	0.0445
1290.00	0.0447
1291.00	0.0449
1292.00	0.0451
1293.00	0.0452
1294.00	0.0452
1295.00	0.0452
1296.00	0.0454
1297.00	0.0454
1298.00	0.0456
1299.00	0.0459
1300.00	0.0459
1301.00	0.0458
1302.00	0.0459
1303.00	0.0459
1304.00	0.0459
1305.00	0.0463
1306.00	0.0464
1307.00	0.0464
1308.00	0.0464
1309.00	0.0467
1310.00	0.0466
1311.00	0.0467
1312.00	0.0469
1313.00	0.0469
1314.00	0.0470
1315.00	0.0471
1316.00	0.0473
1317.00	0.0474
1318.00	0.0477
1319.00	0.0478
1320.00	0.0480
1321.00	0.0480
1322.00	0.0480
1323.00	0.0479
1324.00	0.0480
1325.00	0.0481
1326.00	0.0481
1327.00	0.0480
1328.00	0.0482
1329.00	0.0482
1330.00	0.0485
1331.00	0.0487
1332.00	0.0489
1333.00	0.0490
1334.00	0.0493
1335.00	0.0492
1336.00	0.0494
1337.00	0.0497
1338.00	0.0496
1339.00	0.0496
1340.00	0.0497
1341.00	0.0499
1342.00	0.0500
1343.00	0.0504
1344.00	0.0503
1345.00	0.0505
1346.00	0.0506
1347.00	0.0507
1348.00	0.0507
1349.00	0.0511
1350.00	0.0514
1351.00	0.0515
1352.00	0.0517
1353.00	0.0518
1354.00	0.0523
1355.00	0.0523
1356.00	0.0526
1357.00	0.0527
1358.00	0.0529
1359.00	0.0529
1360.00	0.0532
1361.00	0.0534
1362.00	0.0535
1363.00	0.0538
1364.00	0.0539
1365.00	0.0540
1366.00	0.0541
1367.00	0.0543
1368.00	0.0544
1369.00	0.0548
1370.00	0.0548
1371.00	0.0550
1372.00	0.0551
1373.00	0.0554
1374.00	0.0555
1375.00	0.0553
1376.00	0.0555
1377.00	0.0559
1378.00	0.0561
1379.00	0.0562
1380.00	0.0567
1381.00	0.0570
1382.00	0.0569
1383.00	0.0570
1384.00	0.0572
1385.00	0.0575
1386.00	0.0575
1387.00	0.0577
1388.00	0.0577
1389.00	0.0582
1390.00	0.0579
1391.00	0.0573
1392.00	0.0578
1393.00	0.0581
1394.00	0.0580
1395.00	0.0585
1396.00	0.0594
1397.00	0.0594
1398.00	0.0595
1399.00	0.0597
1400.00	0.0601
1401.00	0.0602
1402.00	0.0603
1403.00	0.0606
1404.00	0.0608
1405.00	0.0608
1406.00	0.0610
1407.00	0.0614
1408.00	0.0616
1409.00	0.0619
1410.00	0.0620
1411.00	0.0624
1412.00	0.0620
1413.00	0.0621
1414.00	0.0620
1415.00	0.0617
1416.00	0.0618
1417.00	0.0623
1418.00	0.0625
1419.00	0.0630
1420.00	0.0638
1421.00	0.0637
1422.00	0.0641
1423.00	0.0644
1424.00	0.0644
1425.00	0.0646
1426.00	0.0651
1427.00	0.0652
1428.00	0.0651
1429.00	0.0655
1430.00	0.0659
1431.00	0.0661
1432.00	0.0664
1433.00	0.0668
1434.00	0.0669
1435.00	0.0669
1436.00	0.0669
1437.00	0.0666
1438.00	0.0667
1439.00	0.0669
1440.00	0.0671
1441.00	0.0674
1442.00	0.0680
1443.00	0.0682
1444.00	0.0684
1445.00	0.0685
1446.00	0.0686
1447.00	0.0688
1448.00	0.0689
1449.00	0.0693
1450.00	0.0695
1451.00	0.0695
1452.00	0.0694
1453.00	0.0697
1454.00	0.0697
1455.00	0.0699
1456.00	0.0704
1457.00	0.0707
1458.00	0.0710
1459.00	0.0713
1460.00	0.0715
1461.00	0.0717
1462.00	0.0720
1463.00	0.0722
1464.00	0.0724
1465.00	0.0725
1466.00	0.0728
1467.00	0.0731
1468.00	0.0732
1469.00	0.0733
1470.00	0.0737
1471.00	0.0742
1472.00	0.0743
1473.00	0.0745
1474.00	0.0747
1475.00	0.0747
1476.00	0.0743
1477.00	0.0746
1478.00	0.0748
1479.00	0.0751
1480.00	0.0753
1481.00	0.0755
1482.00	0.0758
1483.00	0.0761
1484.00	0.0762
1485.00	0.0766
1486.00	0.0767
1487.00	0.0767
1488.00	0.0771
1489.00	0.0771
1490.00	0.0774
1491.00	0.0779
1492.00	0.0783
1493.00	0.0783
1494.00	0.0788
1495.00	0.0789
1496.00	0.0793
1497.00	0.0795
1498.00	0.0793
1499.00	0.0795
1500.00	0.0797
1501.00	0.0797
1502.00	0.0801
1503.00	0.0806
1504.00	0.0808
1505.00	0.0813
1506.00	0.0817
1507.00	0.0818
1508.00	0.0823
1509.00	0.0824
1510.00	0.0825
1511.00	0.0828
1512.00	0.0829
1513.00	0.0828
1514.00	0.0833
1515.00	0.0834
1516.00	0.0834
1517.00	0.0841
1518.00	0.0843
1519.00	0.0845
1520.00	0.0847
1521.00	0.0850
1522.00	0.0851
1523.00	0.0853
1524.00	0.0853
1525.00	0.0855
1526.00	0.0858
1527.00	0.0857
1528.00	0.0862
1529.00	0.0866
1530.00	0.0868
1531.00	0.0871
1532.00	0.0875
1533.00	0.0876
1534.00	0.0877
1535.00	0.0879
1536.00	0.0880
1537.00	0.0882
1538.00	0.0884
1539.00	0.0886
1540.00	0.0890
1541.00	0.0893
1542.00	0.0895
1543.00	0.0898
1544.00	0.0900
1545.00	0.0903
1546.00	0.0905
1547.00	0.0906
1548.00	0.0910
1549.00	0.0912
1550.00	0.0914
1551.00	0.0917
1552.00	0.0921
1553.00	0.0923
1554.00	0.0927
1555.00	0.0927
1556.00	0.0928
1557.00	0.0931
1558.00	0.0932
1559.00	0.0935
1560.00	0.0938
1561.00	0.0941
1562.00	0.0942
1563.00	0.0947
1564.00	0.0947
1565.00	0.0951
1566.00	0.0954
1567.00	0.0957
1568.00	0.0959
1569.00	0.0962
1570.00	0.0964
1571.00	0.0966
1572.00	0.0968
1573.00	0.0971
1574.00	0.0971
1575.00	0.0972
1576.00	0.0974
1577.00	0.0977
1578.00	0.0979
1579.00	0.0983
1580.00	0.0985
1581.00	0.0988
1582.00	0.0989
1583.00	0.0994
1584.00	0.0996
1585.00	0.0998
1586.00	0.1002
1587.00	0.0999
1588.00	0.1000
1589.00	0.1006
1590.00	0.1007
1591.00	0.1004
1592.00	0.1012
1593.00	0.1012
1594.00	0.1012
1595.00	0.1017
1596.00	0.1024
1597.00	0.1026
1598.00	0.1030
1599.00	0.1031
1600.00	0.1033
1601.00	0.1034
1602.00	0.1036
1603.00	0.1039
1604.00	0.1040
1605.00	0.1042
1606.00	0.1046
1607.00	0.1049
1608.00	0.1051
1609.00	0.1056
1610.00	0.1057
1611.00	0.1059
1612.00	0.1059
1613.00	0.1061
1614.00	0.1063
1615.00	0.1067
1616.00	0.1071
1617.00	0.1074
1618.00	0.1077
1619.00	0.1080
1620.00	0.1081
1621.00	0.1078
1622.00	0.1082
1623.00	0.1082
1624.00	0.1085
1625.00	0.1092
1626.00	0.1098
1627.00	0.1101
1628.00	0.1104
1629.00	0.1106
1630.00	0.1104
1631.00	0.1105
1632.00	0.1106
1633.00	0.1109
1634.00	0.1110
1635.00	0.1110
1636.00	0.1112
1637.00	0.1115
1638.00	0.1117
1639.00	0.1117
1640.00	0.1120
1641.00	0.1120
1642.00	0.1121
1643.00	0.1121
1644.00	0.1123
1645.00	0.1124
1646.00	0.1125
1647.00	0.1125
1648.00	0.1127
1649.00	0.1128
1650.00	0.1128
1651.00	0.1130
1652.00	0.1129
1653.00	0.1129
1654.00	0.1128
1655.00	0.1128
1656.00	0.1127
1657.00	0.1127
1658.00	0.1128
1659.00	0.1129
1660.00	0.1131
1661.00	0.1134
1662.00	0.1136
1663.00	0.1137
1664.00	0.1138
1665.00	0.1140
1666.00	0.1142
1667.00	0.1144
1668.00	0.1146
1669.00	0.1149
1670.00	0.1151
1671.00	0.1153
1672.00	0.1155
1673.00	0.1157
1674.00	0.1159
1675.00	0.1159
1676.00	0.1163
1677.00	0.1164
1678.00	0.1165
1679.00	0.1167
1680.00	0.1170
1681.00	0.1172
1682.00	0.1175
1683.00	0.1179
1684.00	0.1183
1685.00	0.1185
1686.00	0.1187
1687.00	0.1188
1688.00	0.1190
1689.00	0.1190
1690.00	0.1191
1691.00	0.1192
1692.00	0.1193
1693.00	0.1196
1694.00	0.1198
1695.00	0.1199
1696.00	0.1203
1697.00	0.1204
1698.00	0.1207
1699.00	0.1209
1700.00	0.1211
1701.00	0.1212
1702.00	0.1214
1703.00	0.1213
1704.00	0.1213
1705.00	0.1215
1706.00	0.1216
1707.00	0.1217
1708.00	0.1219
1709.00	0.1222
1710.00	0.1224
1711.00	0.1227
1712.00	0.1230
1713.00	0.1234
1714.00	0.1237
1715.00	0.1240
1716.00	0.1242
1717.00	0.1242
1718.00	0.1243
1719.00	0.1243
1720.00	0.1244
1721.00	0.1244
1722.00	0.1246
1723.00	0.1248
1724.00	0.1250
1725.00	0.1251
1726.00	0.1253
1727.00	0.1254
1728.00	0.1257
1729.00	0.1258
1730.00	0.1260
1731.00	0.1263
1732.00	0.1265
1733.00	0.1267
1734.00	0.1269
1735.00	0.1272
1736.00	0.1276
1737.00	0.1277
1738.00	0.1278
1739.00	0.1279
1740.00	0.1280
1741.00	0.1279
1742.00	0.1279
1743.00	0.1282
1744.00	0.1286
1745.00	0.1286
1746.00	0.1288
1747.00	0.1293
1748.00	0.1293
1749.00	0.1292
1750.00	0.1295
1751.00	0.1297
1752.00	0.1298
1753.00	0.1300
1754.00	0.1302
1755.00	0.1303
1756.00	0.1303
1757.00	0.1305
1758.00	0.1307
1759.00	0.1309
1760.00	0.1309
1761.00	0.1311
1762.00	0.1312
1763.00	0.1315
1764.00	0.1317
1765.00	0.1321
1766.00	0.1323
1767.00	0.1325
1768.00	0.1327
1769.00	0.1328
1770.00	0.1328
1771.00	0.1329
1772.00	0.1330
1773.00	0.1332
1774.00	0.1334
1775.00	0.1335
1776.00	0.1337
1777.00	0.1337
1778.00	0.1336
1779.00	0.1337
1780.00	0.1338
1781.00	0.1341
1782.00	0.1342
1783.00	0.1346
1784.00	0.1347
1785.00	0.1350
1786.00	0.1350
1787.00	0.1352
1788.00	0.1352
1789.00	0.1353
1790.00	0.1352
1791.00	0.1353
1792.00	0.1355
1793.00	0.1356
1794.00	0.1358
1795.00	0.1362
1796.00	0.1365
1797.00	0.1366
1798.00	0.1366
1799.00	0.1366
1800.00	0.1366
1801.00	0.1366
1802.00	0.1368
1803.00	0.1371
1804.00	0.1374
1805.00	0.1375
1806.00	0.1377
1807.00	0.1380
1808.00	0.1382
1809.00	0.1382
1810.00	0.1384
1811.00	0.1384
1812.00	0.1384
1813.00	0.1385
1814.00	0.1387
1815.00	0.1386
1816.00	0.1387
1817.00	0.1387
1818.00	0.1389
1819.00	0.1391
1820.00	0.1394
1821.00	0.1396
1822.00	0.1397
1823.00	0.1399
1824.00	0.1400
1825.00	0.1402
1826.00	0.1406
1827.00	0.1408
1828.00	0.1407
1829.00	0.1407
1830.00	0.1408
1831.00	0.1408
1832.00	0.1410
1833.00	0.1413
1834.00	0.1416
1835.00	0.1417
1836.00	0.1419
1837.00	0.1418
1838.00	0.1416
1839.00	0.1415
1840.00	0.1416
1841.00	0.1415
1842.00	0.1416
1843.00	0.1418
1844.00	0.1417
1845.00	0.1417
1846.00	0.1415
1847.00	0.1415
1848.00	0.1414
1849.00	0.1413
1850.00	0.1413
1851.00	0.1414
1852.00	0.1416
1853.00	0.1417
1854.00	0.1422
1855.00	0.1426
1856.00	0.1431
1857.00	0.1435
1858.00	0.1440
1859.00	0.1442
1860.00	0.1443
1861.00	0.1445
1862.00	0.1445
1863.00	0.1445
1864.00	0.1448
1865.00	0.1450
1866.00	0.1452
1867.00	0.1453
1868.00	0.1453
1869.00	0.1452
1870.00	0.1450
1871.00	0.1448
1872.00	0.1447
1873.00	0.1446
1874.00	0.1444
1875.00	0.1444
1876.00	0.1446
1877.00	0.1447
1878.00	0.1448
1879.00	0.1450
1880.00	0.1452
1881.00	0.1452
1882.00	0.1452
1883.00	0.1454
1884.00	0.1455
1885.00	0.1454
1886.00	0.1453
1887.00	0.1454
1888.00	0.1453
1889.00	0.1454
1890.00	0.1456
1891.00	0.1459
1892.00	0.1459
1893.00	0.1464
1894.00	0.1466
1895.00	0.1467
1896.00	0.1470
1897.00	0.1473
1898.00	0.1476
1899.00	0.1479
1900.00	0.1483
1901.00	0.1486
1902.00	0.1488
1903.00	0.1488
1904.00	0.1488
1905.00	0.1486
1906.00	0.1485
1907.00	0.1484
1908.00	0.1482
1909.00	0.1482
1910.00	0.1483
1911.00	0.1484
1912.00	0.1484
1913.00	0.1484
1914.00	0.1484
1915.00	0.1481
1916.00	0.1479
1917.00	0.1481
1918.00	0.1481
1919.00	0.1482
1920.00	0.1485
1921.00	0.1488
1922.00	0.1491
1923.00	0.1493
1924.00	0.1497
1925.00	0.1498
1926.00	0.1499
1927.00	0.1499
1928.00	0.1500
1929.00	0.1499
1930.00	0.1499
1931.00	0.1500
1932.00	0.1500
1933.00	0.1501
1934.00	0.1502
1935.00	0.1503
1936.00	0.1503
1937.00	0.1504
1938.00	0.1504
1939.00	0.1504
1940.00	0.1504
1941.00	0.1506
1942.00	0.1506
1943.00	0.1506
1944.00	0.1506
1945.00	0.1506
1946.00	0.1505
1947.00	0.1506
1948.00	0.1504
1949.00	0.1505
1950.00	0.1505
1951.00	0.1503
1952.00	0.1502
1953.00	0.1503
1954.00	0.1504
1955.00	0.1506
1956.00	0.1507
1957.00	0.1512
1958.00	0.1513
1959.00	0.1514
1960.00	0.1514
1961.00	0.1515
1962.00	0.1513
1963.00	0.1514
1964.00	0.1513
1965.00	0.1514
1966.00	0.1516
1967.00	0.1517
1968.00	0.1518
1969.00	0.1522
1970.00	0.1521
1971.00	0.1522
1972.00	0.1521
1973.00	0.1519
1974.00	0.1519
1975.00	0.1519
1976.00	0.1519
1977.00	0.1521
1978.00	0.1522
1979.00	0.1523
1980.00	0.1525
1981.00	0.1525
1982.00	0.1527
1983.00	0.1529
1984.00	0.1528
1985.00	0.1530
1986.00	0.1532
1987.00	0.1533
1988.00	0.1533
1989.00	0.1536
1990.00	0.1535
1991.00	0.1535
1992.00	0.1533
1993.00	0.1532
1994.00	0.1527
1995.00	0.1528
1996.00	0.1527
1997.00	0.1530
1998.00	0.1532
1999.00	0.1536
2000.00	0.1538
2001.00	0.1540
2002.00	0.1540
2003.00	0.1541
2004.00	0.1540
2005.00	0.1538
2006.00	0.1537
2007.00	0.1537
2008.00	0.1537
2009.00	0.1539
2010.00	0.1540
2011.00	0.1540
2012.00	0.1540
2013.00	0.1540
2014.00	0.1537
2015.00	0.1538
2016.00	0.1538
2017.00	0.1537
2018.00	0.1539
2019.00	0.1541
2020.00	0.1542
2021.00	0.1541
2022.00	0.1544
2023.00	0.1545
2024.00	0.1545
2025.00	0.1545
2026.00	0.1547
2027.00	0.1543
2028.00	0.1540
2029.00	0.1542
2030.00	0.1542
2031.00	0.1542
2032.00	0.1546
2033.00	0.1548
2034.00	0.1550
2035.00	0.1549
2036.00	0.1550
2037.00	0.1548
2038.00	0.1548
2039.00	0.1545
2040.00	0.1545
2041.00	0.1547
2042.00	0.1548
2043.00	0.1548
2044.00	0.1551
2045.00	0.1554
2046.00	0.1553
2047.00	0.1554
2048.00	0.1551
2049.00	0.1550
2050.00	0.1548
2051.00	0.1550
2052.00	0.1553
2053.00	0.1556
2054.00	0.1558
2055.00	0.1561
2056.00	0.1561
2057.00	0.1559
2058.00	0.1559
2059.00	0.1558
2060.00	0.1556
2061.00	0.1553
2062.00	0.1554
2063.00	0.1556
2064.00	0.1556
2065.00	0.1555
2066.00	0.1557
2067.00	0.1556
2068.00	0.1557
2069.00	0.1555
2070.00	0.1555
2071.00	0.1556
2072.00	0.1559
2073.00	0.1559
2074.00	0.1561
2075.00	0.1561
2076.00	0.1560
2077.00	0.1557
2078.00	0.1559
2079.00	0.1558
2080.00	0.1559
2081.00	0.1560
2082.00	0.1562
2083.00	0.1561
2084.00	0.1561
2085.00	0.1562
2086.00	0.1563
2087.00	0.1561
2088.00	0.1560
2089.00	0.1559
2090.00	0.1561
2091.00	0.1560
2092.00	0.1558
2093.00	0.1556
2094.00	0.1556
2095.00	0.1552
2096.00	0.1551
2097.00	0.1554
2098.00	0.1557
2099.00	0.1558
2100.00	0.1563
2101.00	0.1565
2102.00	0.1564
2103.00	0.1565
2104.00	0.1565
2105.00	0.1560
2106.00	0.1560
2107.00	0.1561
2108.00	0.1560
2109.00	0.1561
2110.00	0.1563
2111.00	0.1563
2112.00	0.1563
2113.00	0.1564
2114.00	0.1563
2115.00	0.1562
2116.00	0.1560
2117.00	0.1558
2118.00	0.1558
2119.00	0.1559
2120.00	0.1559
2121.00	0.1558
2122.00	0.1561
2123.00	0.1559
2124.00	0.1558
2125.00	0.1557
2126.00	0.1560
2127.00	0.1562
2128.00	0.1564
2129.00	0.1562
2130.00	0.1563
2131.00	0.1561
2132.00	0.1559
2133.00	0.1560
2134.00	0.1564
2135.00	0.1564
2136.00	0.1564
2137.00	0.1564
2138.00	0.1563
2139.00	0.1562
2140.00	0.1563
2141.00	0.1565
2142.00	0.1565
2143.00	0.1568
2144.00	0.1569
2145.00	0.1568
2146.00	0.1569
2147.00	0.1568
2148.00	0.1565
2149.00	0.1561
2150.00	0.1556
2151.00	0.1554
2152.00	0.1555
2153.00	0.1553
2154.00	0.1556
2155.00	0.1558
2156.00	0.1557
2157.00	0.1556
2158.00	0.1557
2159.00	0.1556
2160.00	0.1555
2161.00	0.1555
2162.00	0.1558
2163.00	0.1558
2164.00	0.1560
2165.00	0.1562
2166.00	0.1565
2167.00	0.1563
2168.00	0.1563
2169.00	0.1562
2170.00	0.1561
2171.00	0.1561
2172.00	0.1559
2173.00	0.1558
2174.00	0.1559
2175.00	0.1560
2176.00	0.1560
2177.00	0.1562
2178.00	0.1563
2179.00	0.1564
2180.00	0.1562
2181.00	0.1560
2182.00	0.1556
2183.00	0.1555
2184.00	0.1556
2185.00	0.1553
2186.00	0.1552
2187.00	0.1553
2188.00	0.1552
2189.00	0.1551
2190.00	0.1551
2191.00	0.1551
2192.00	0.1550
2193.00	0.1551
2194.00	0.1548
2195.00	0.1548
2196.00	0.1545
2197.00	0.1544
2198.00	0.1542
2199.00	0.1541
2200.00	0.1541
2201.00	0.1543
2202.00	0.1539
2203.00	0.1539
2204.00	0.1543
2205.00	0.1542
2206.00	0.1543
2207.00	0.1543
2208.00	0.1542
2209.00	0.1538
2210.00	0.1538
2211.00	0.1535
2212.00	0.1534
2213.00	0.1535
2214.00	0.1532
2215.00	0.1531
2216.00	0.1533
2217.00	0.1536
2218.00	0.1535
2219.00	0.1538
2220.00	0.1538
2221.00	0.1534
2222.00	0.1533
2223.00	0.1531
2224.00	0.1530
2225.00	0.1529
2226.00	0.1533
2227.00	0.1533
2228.00	0.1537
2229.00	0.1538
2230.00	0.1537
2231.00	0.1534
2232.00	0.1533
2233.00	0.1529
2234.00	0.1530
2235.00	0.1530
2236.00	0.1530
2237.00	0.1527
2238.00	0.1528
2239.00	0.1530
2240.00	0.1529
2241.00	0.1532
2242.00	0.1533
2243.00	0.1537
2244.00	0.1533
2245.00	0.1532
2246.00	0.1529
2247.00	0.1529
2248.00	0.1525
2249.00	0.1527
2250.00	0.1526
2251.00	0.1526
2252.00	0.1527
2253.00	0.1527
2254.00	0.1526
2255.00	0.1528
2256.00	0.1531
2257.00	0.1532
2258.00	0.1533
2259.00	0.1533
2260.00	0.1536
2261.00	0.1536
2262.00	0.1535
2263.00	0.1537
2264.00	0.1538
2265.00	0.1536
2266.00	0.1535
2267.00	0.1535
2268.00	0.1533
2269.00	0.1531
2270.00	0.1531
2271.00	0.1532
2272.00	0.1529
2273.00	0.1528
2274.00	0.1530
2275.00	0.1531
2276.00	0.1531
2277.00	0.1532
2278.00	0.1533
2279.00	0.1531
2280.00	0.1531
2281.00	0.1531
2282.00	0.1528
2283.00	0.1530
2284.00	0.1530
2285.00	0.1530
2286.00	0.1531
2287.00	0.1534
2288.00	0.1534
2289.00	0.1534
2290.00	0.1534
2291.00	0.1534
2292.00	0.1536
2293.00	0.1536
2294.00	0.1536
2295.00	0.1537
2296.00	0.1537
2297.00	0.1535
2298.00	0.1535
2299.00	0.1534
2300.00	0.1531
2301.00	0.1530
2302.00	0.1527
2303.00	0.1526
2304.00	0.1525
2305.00	0.1525
2306.00	0.1524
2307.00	0.1524
2308.00	0.1523
2309.00	0.1525
2310.00	0.1526
2311.00	0.1526
2312.00	0.1525
2313.00	0.1524
2314.00	0.1521
2315.00	0.1521
2316.00	0.1523
2317.00	0.1523
2318.00	0.1525
2319.00	0.1527
2320.00	0.1526
2321.00	0.1526
2322.00	0.1524
2323.00	0.1525
2324.00	0.1525
2325.00	0.1525
2326.00	0.1523
2327.00	0.1524
2328.00	0.1523
2329.00	0.1522
2330.00	0.1523
2331.00	0.1526
2332.00	0.1528
2333.00	0.1528
2334.00	0.1528
2335.00	0.1525
2336.00	0.1522
2337.00	0.1519
2338.00	0.1517
2339.00	0.1515
2340.00	0.1514
2341.00	0.1512
2342.00	0.1513
2343.00	0.1512
2344.00	0.1513
2345.00	0.1514
2346.00	0.1515
2347.00	0.1514
2348.00	0.1516
2349.00	0.1513
2350.00	0.1514
2351.00	0.1513
2352.00	0.1518
2353.00	0.1516
2354.00	0.1517
2355.00	0.1513
2356.00	0.1513
2357.00	0.1510
2358.00	0.1510
2359.00	0.1512
2360.00	0.1511
2361.00	0.1511
2362.00	0.1511
2363.00	0.1511
2364.00	0.1509
2365.00	0.1509
2366.00	0.1511
2367.00	0.1510
2368.00	0.1507
2369.00	0.1508
2370.00	0.1511
2371.00	0.1509
2372.00	0.1511
2373.00	0.1511
2374.00	0.1510
2375.00	0.1511
2376.00	0.1509
2377.00	0.1508
2378.00	0.1506
2379.00	0.1507
2380.00	0.1499
2381.00	0.1499
2382.00	0.1496
2383.00	0.1497
2384.00	0.1494
2385.00	0.1499
2386.00	0.1501
2387.00	0.1502
2388.00	0.1500
2389.00	0.1502
2390.00	0.1500
2391.00	0.1497
2392.00	0.1498
2393.00	0.1499
2394.00	0.1497
2395.00	0.1499
2396.00	0.1499
2397.00	0.1500
2398.00	0.1500
2399.00	0.1503
2400.00	0.1499
2401.00	0.1495
2402.00	0.1493
2403.00	0.1491
2404.00	0.1490
2405.00	0.1491
2406.00	0.1495
2407.00	0.1495
2408.00	0.1496
2409.00	0.1493
2410.00	0.1491
2411.00	0.1491
2412.00	0.1488
2413.00	0.1486
2414.00	0.1485
2415.00	0.1484
2416.00	0.1484
2417.00	0.1485
2418.00	0.1484
2419.00	0.1483
2420.00	0.1484
2421.00	0.1480
2422.00	0.1481
2423.00	0.1480
2424.00	0.1482
2425.00	0.1480
2426.00	0.1478
2427.00	0.1477
2428.00	0.1481
2429.00	0.1477
2430.00	0.1480
2431.00	0.1480
2432.00	0.1477
2433.00	0.1472
2434.00	0.1473
2435.00	0.1474
2436.00	0.1474
2437.00	0.1475
2438.00	0.1478
2439.00	0.1480
2440.00	0.1482
2441.00	0.1483
2442.00	0.1481
2443.00	0.1484
2444.00	0.1478
2445.00	0.1477
2446.00	0.1476
2447.00	0.1476
2448.00	0.1471
2449.00	0.1475
2450.00	0.1473
2451.00	0.1476
2452.00	0.1479
2453.00	0.1479
2454.00	0.1475
2455.00	0.1474
2456.00	0.1465
2457.00	0.1462
2458.00	0.1463
2459.00	0.1462
2460.00	0.1461
2461.00	0.1468
2462.00	0.1466
2463.00	0.1463
2464.00	0.1463
2465.00	0.1464
2466.00	0.1460
2467.00	0.1462
2468.00	0.1466
2469.00	0.1469
2470.00	0.1469
2471.00	0.1471
2472.00	0.1467
2473.00	0.1463
2474.00	0.1458
2475.00	0.1461
2476.00	0.1461
2477.00	0.1462
2478.00	0.1462
2479.00	0.1462
2480.00	0.1456
2481.00	0.1454
2482.00	0.1452
2483.00	0.1449
2484.00	0.1444
2485.00	0.1445
2486.00	0.1442
2487.00	0.1441
2488.00	0.1446
2489.00	0.1450
2490.00	0.1450
2491.00	0.1443
2492.00	0.1445
2493.00	0.1438
2494.00	0.1439
2495.00	0.1434
2496.00	0.1443
2497.00	0.1440
2498.00	0.1439
2499.00	0.1436
2500.00	0.1439
2501.00	0.1440
2502.00	0.1438
2503.00	0.1439
2504.00	0.1441
2505.00	0.1441
2506.00	0.1442
2507.00	0.1442
2508.00	0.1441
2509.00	0.1441
2510.00	0.1441
2511.00	0.1442
2512.00	0.1441
2513.00	0.1437
2514.00	0.1435
2515.00	0.1435
2516.00	0.1434
2517.00	0.1435
2518.00	0.1436
2519.00	0.1436
2520.00	0.1436
2521.00	0.1436
2522.00	0.1435
2523.00	0.1433
2524.00	0.1431
2525.00	0.1427
2526.00	0.1426
2527.00	0.1426
2528.00	0.1424
2529.00	0.1424
2530.00	0.1423
2531.00	0.1421
2532.00	0.1419
2533.00	0.1418
2534.00	0.1419
2535.00	0.1420
2536.00	0.1418
2537.00	0.1419
2538.00	0.1418
2539.00	0.1418
2540.00	0.1418
2541.00	0.1415
2542.00	0.1412
2543.00	0.1410
2544.00	0.1408
2545.00	0.1409
2546.00	0.1408
2547.00	0.1407
2548.00	0.1407
2549.00	0.1405
2550.00	0.1406
2551.00	0.1404
2552.00	0.1398
2553.00	0.1396
2554.00	0.1392
2555.00	0.1389
2556.00	0.1390
2557.00	0.1393
2558.00	0.1395
2559.00	0.1399
2560.00	0.1404
2561.00	0.1409
2562.00	0.1412
2563.00	0.1413
2564.00	0.1411
2565.00	0.1409
2566.00	0.1411
2567.00	0.1410
2568.00	0.1405
2569.00	0.1403
2570.00	0.1404
2571.00	0.1400
2572.00	0.1403
2573.00	0.1407
2574.00	0.1404
2575.00	0.1409
2576.00	0.1414
2577.00	0.1414
2578.00	0.1418
2579.00	0.1414
2580.00	0.1413
2581.00	0.1412
2582.00	0.1410
2583.00	0.1402
2584.00	0.1397
2585.00	0.1387
2586.00	0.1388
2587.00	0.1382
2588.00	0.1383
2589.00	0.1385
2590.00	0.1389
2591.00	0.1393
2592.00	0.1399
2593.00	0.1399
2594.00	0.1397
2595.00	0.1398
2596.00	0.1392
2597.00	0.1388
2598.00	0.1384
2599.00	0.1385
2600.00	0.1383
2601.00	0.1382
2602.00	0.1374
2603.00	0.1375
2604.00	0.1374
2605.00	0.1365
2606.00	0.1363
2607.00	0.1358
2608.00	0.1357
2609.00	0.1354
2610.00	0.1354
2611.00	0.1357
2612.00	0.1366
2613.00	0.1367
2614.00	0.1371
2615.00	0.1374
2616.00	0.1381
2617.00	0.1378
2618.00	0.1373
2619.00	0.1372
2620.00	0.1370
2621.00	0.1368
2622.00	0.1365
2623.00	0.1361
2624.00	0.1363
2625.00	0.1367
2626.00	0.1365
2627.00	0.1365
2628.00	0.1367
2629.00	0.1365
2630.00	0.1367
2631.00	0.1370
2632.00	0.1369
2633.00	0.1368
2634.00	0.1368
2635.00	0.1366
2636.00	0.1365
2637.00	0.1362
2638.00	0.1360
2639.00	0.1358
2640.00	0.1356
2641.00	0.1354
2642.00	0.1353
2643.00	0.1353
2644.00	0.1354
2645.00	0.1352
2646.00	0.1350
2647.00	0.1350
2648.00	0.1348
2649.00	0.1347
2650.00	0.1343
2651.00	0.1340
2652.00	0.1339
2653.00	0.1340
2654.00	0.1339
2655.00	0.1340
2656.00	0.1334
2657.00	0.1335
2658.00	0.1329
2659.00	0.1326
2660.00	0.1323
2661.00	0.1319
2662.00	0.1316
2663.00	0.1316
2664.00	0.1322
2665.00	0.1327
2666.00	0.1333
2667.00	0.1336
2668.00	0.1337
2669.00	0.1337
2670.00	0.1341
2671.00	0.1334
2672.00	0.1331
2673.00	0.1329
2674.00	0.1329
2675.00	0.1324
2676.00	0.1332
2677.00	0.1328
2678.00	0.1329
2679.00	0.1325
2680.00	0.1324
2681.00	0.1316
2682.00	0.1316
2683.00	0.1308
2684.00	0.1295
2685.00	0.1294
2686.00	0.1299
2687.00	0.1288
2688.00	0.1296
2689.00	0.1299
2690.00	0.1300
2691.00	0.1317
2692.00	0.1323
2693.00	0.1334
2694.00	0.1358
2695.00	0.1351
2696.00	0.1354
2697.00	0.1373
2698.00	0.1406
2699.00	0.1446
2700.00	0.1475
2701.00	0.1516
2702.00	0.1542
2703.00	0.1568
2704.00	0.1603
2705.00	0.1641
2706.00	0.1674
2707.00	0.1696
2708.00	0.1723
2709.00	0.1741
2710.00	0.1757
2711.00	0.1787
2712.00	0.1812
2713.00	0.1840
2714.00	0.1868
2715.00	0.1902
2716.00	0.1935
2717.00	0.1952
2718.00	0.1966
2719.00	0.1955
2720.00	0.1972
2721.00	0.1995
2722.00	0.1993
2723.00	0.1993
2724.00	0.1979
2725.00	0.1965
2726.00	0.1949
2727.00	0.1922
2728.00	0.1904
2729.00	0.1870
2730.00	0.1869
2731.00	0.1854
2732.00	0.1818
2733.00	0.1800
2734.00	0.1785
2735.00	0.1770
2736.00	0.1752
2737.00	0.1736
2738.00	0.1712
2739.00	0.1676
2740.00	0.1665
2741.00	0.1635
2742.00	0.1603
2743.00	0.1588
2744.00	0.1550
2745.00	0.1522
2746.00	0.1495
2747.00	0.1472
2748.00	0.1447
2749.00	0.1422
2750.00	0.1404
2751.00	0.1383
2752.00	0.1364
2753.00	0.1341
2754.00	0.1326
2755.00	0.1316
2756.00	0.1292
2757.00	0.1262
2758.00	0.1240
2759.00	0.1221
2760.00	0.1211
2761.00	0.1203
2762.00	0.1193
2763.00	0.1182
2764.00	0.1170
2765.00	0.1156
2766.00	0.1147
2767.00	0.1141
2768.00	0.1144
2769.00	0.1143
2770.00	0.1139
2771.00	0.1131
2772.00	0.1133
2773.00	0.1129
2774.00	0.1123
2775.00	0.1119
2776.00	0.1106
2777.00	0.1100
2778.00	0.1097
2779.00	0.1093
2780.00	0.1084
2781.00	0.1074
2782.00	0.1075
2783.00	0.1067
2784.00	0.1063
2785.00	0.1062
2786.00	0.1065
2787.00	0.1073
2788.00	0.1072
2789.00	0.1072
2790.00	0.1072
2791.00	0.1073
2792.00	0.1076
2793.00	0.1077
2794.00	0.1075
2795.00	0.1077
2796.00	0.1078
2797.00	0.1076
2798.00	0.1072
2799.00	0.1071
2800.00	0.1068
2801.00	0.1068
2802.00	0.1068
2803.00	0.1068
2804.00	0.1066
2805.00	0.1069
2806.00	0.1071
2807.00	0.1071
2808.00	0.1073
2809.00	0.1074
2810.00	0.1078
2811.00	0.1081
2812.00	0.1083
2813.00	0.1086
2814.00	0.1089
2815.00	0.1090
2816.00	0.1093
2817.00	0.1093
2818.00	0.1096
2819.00	0.1099
2820.00	0.1105
2821.00	0.1108
2822.00	0.1110
2823.00	0.1115
2824.00	0.1114
2825.00	0.1117
2826.00	0.1121
2827.00	0.1123
2828.00	0.1125
2829.00	0.1126
2830.00	0.1128
2831.00	0.1126
2832.00	0.1127
2833.00	0.1130
2834.00	0.1133
2835.00	0.1138
2836.00	0.1140
2837.00	0.1141
2838.00	0.1143
2839.00	0.1146
2840.00	0.1151
2841.00	0.1154
2842.00	0.1157
2843.00	0.1160
2844.00	0.1162
2845.00	0.1163
2846.00	0.1165
2847.00	0.1167
2848.00	0.1168
2849.00	0.1170
2850.00	0.1171
2851.00	0.1172
2852.00	0.1173
2853.00	0.1176
2854.00	0.1178
2855.00	0.1179
2856.00	0.1182
2857.00	0.1183
2858.00	0.1184
2859.00	0.1186
2860.00	0.1187
2861.00	0.1190
2862.00	0.1186
2863.00	0.1185
2864.00	0.1184
2865.00	0.1183
2866.00	0.1184
2867.00	0.1184
2868.00	0.1183
2869.00	0.1185
2870.00	0.1183
2871.00	0.1185
2872.00	0.1185
2873.00	0.1190
2874.00	0.1193
2875.00	0.1195
2876.00	0.1194
2877.00	0.1195
2878.00	0.1194
2879.00	0.1197
2880.00	0.1197
2881.00	0.1198
2882.00	0.1198
2883.00	0.1199
2884.00	0.1199
2885.00	0.1199
2886.00	0.1200
2887.00	0.1201
2888.00	0.1200
2889.00	0.1200
2890.00	0.1200
2891.00	0.1198
2892.00	0.1199
2893.00	0.1199
2894.00	0.1197
2895.00	0.1196
2896.00	0.1196
2897.00	0.1193
2898.00	0.1194
2899.00	0.1196
2900.00	0.1195
2901.00	0.1195
2902.00	0.1197
2903.00	0.1196
2904.00	0.1195
2905.00	0.1196
2906.00	0.1197
2907.00	0.1197
2908.00	0.1198
2909.00	0.1198
2910.00	0.1197
2911.00	0.1199
2912.00	0.1200
2913.00	0.1200
2914.00	0.1200
2915.00	0.1200
2916.00	0.1200
2917.00	0.1202
2918.00	0.1201
2919.00	0.1202
2920.00	0.1201
2921.00	0.1200
2922.00	0.1199
2923.00	0.1198
2924.00	0.1196
2925.00	0.1195
2926.00	0.1196
2927.00	0.1196
2928.00	0.1195
2929.00	0.1194
2930.00	0.1191
2931.00	0.1191
2932.00	0.1193
2933.00	0.1191
2934.00	0.1190
2935.00	0.1189
2936.00	0.1190
2937.00	0.1190
2938.00	0.1190
2939.00	0.1188
2940.00	0.1191
2941.00	0.1196
2942.00	0.1198
2943.00	0.1197
2944.00	0.1200
2945.00	0.1199
2946.00	0.1198
2947.00	0.1198
2948.00	0.1195
2949.00	0.1193
2950.00	0.1193
2951.00	0.1192
2952.00	0.1188
2953.00	0.1187
2954.00	0.1186
2955.00	0.1186
2956.00	0.1186
2957.00	0.1187
2958.00	0.1186
2959.00	0.1187
2960.00	0.1186
2961.00	0.1184
2962.00	0.1187
2963.00	0.1188
2964.00	0.1186
2965.00	0.1184
2966.00	0.1184
2967.00	0.1185
2968.00	0.1186
2969.00	0.1187
2970.00	0.1185
2971.00	0.1186
2972.00	0.1188
2973.00	0.1186
2974.00	0.1184
2975.00	0.1184
2976.00	0.1183
2977.00	0.1180
2978.00	0.1178
2979.00	0.1176
2980.00	0.1174
2981.00	0.1174
2982.00	0.1175
2983.00	0.1172
2984.00	0.1172
2985.00	0.1173
2986.00	0.1173
2987.00	0.1176
2988.00	0.1178
2989.00	0.1179
2990.00	0.1181
2991.00	0.1182
2992.00	0.1184
2993.00	0.1183
2994.00	0.1184
2995.00	0.1184
2996.00	0.1191
2997.00	0.1195
2998.00	0.1199
2999.00	0.1205
3000.00	0.1209
3001.00	0.1213
3002.00	0.1216
3003.00	0.1218
3004.00	0.1222
3005.00	0.1225
3006.00	0.1229
3007.00	0.1232
3008.00	0.1234
3009.00	0.1236
3010.00	0.1235
3011.00	0.1235
3012.00	0.1235
3013.00	0.1233
3014.00	0.1232
3015.00	0.1233
3016.00	0.1233
3017.00	0.1233
3018.00	0.1233
3019.00	0.1232
3020.00	0.1231
3021.00	0.1230
3022.00	0.1230
3023.00	0.1229
3024.00	0.1230
3025.00	0.1230
3026.00	0.1229
3027.00	0.1229
3028.00	0.1230
3029.00	0.1230
3030.00	0.1230
3031.00	0.1230
3032.00	0.1228
3033.00	0.1227
3034.00	0.1227
3035.00	0.1224
3036.00	0.1223
3037.00	0.1223
3038.00	0.1223
3039.00	0.1222
3040.00	0.1221
3041.00	0.1219
3042.00	0.1218
3043.00	0.1218
3044.00	0.1217
3045.00	0.1216
3046.00	0.1214
3047.00	0.1214
3048.00	0.1213
3049.00	0.1214
3050.00	0.1215
3051.00	0.1215
3052.00	0.1217
3053.00	0.1218
3054.00	0.1218
3055.00	0.1218
3056.00	0.1219
3057.00	0.1218
3058.00	0.1219
3059.00	0.1220
3060.00	0.1219
3061.00	0.1219
3062.00	0.1218
3063.00	0.1219
3064.00	0.1215
3065.00	0.1215
3066.00	0.1215
3067.00	0.1214
3068.00	0.1213
3069.00	0.1212
3070.00	0.1210
3071.00	0.1209
3072.00	0.1208
3073.00	0.1208
3074.00	0.1209
3075.00	0.1207
3076.00	0.1206
3077.00	0.1208
3078.00	0.1206
3079.00	0.1206
3080.00	0.1205
3081.00	0.1209
3082.00	0.1209
3083.00	0.1207
3084.00	0.1206
3085.00	0.1205
3086.00	0.1205
3087.00	0.1207
3088.00	0.1206
3089.00	0.1206
3090.00	0.1203
3091.00	0.1204
3092.00	0.1204
3093.00	0.1205
3094.00	0.1203
3095.00	0.1202
3096.00	0.1202
3097.00	0.1201
3098.00	0.1197
3099.00	0.1196
3100.00	0.1196
3101.00	0.1197
3102.00	0.1196
3103.00	0.1196
3104.00	0.1196
3105.00	0.1195
3106.00	0.1193
3107.00	0.1193
3108.00	0.1191
3109.00	0.1189
3110.00	0.1188
3111.00	0.1187
3112.00	0.1187
3113.00	0.1186
3114.00	0.1186
3115.00	0.1187
3116.00	0.1185
3117.00	0.1183
3118.00	0.1178
3119.00	0.1177
3120.00	0.1177
3121.00	0.1175
3122.00	0.1174
3123.00	0.1173
3124.00	0.1172
3125.00	0.1171
3126.00	0.1172
3127.00	0.1171
3128.00	0.1170
3129.00	0.1169
3130.00	0.1170
3131.00	0.1165
3132.00	0.1165
3133.00	0.1166
3134.00	0.1168
3135.00	0.1169
3136.00	0.1170
3137.00	0.1169
3138.00	0.1166
3139.00	0.1167
3140.00	0.1165
3141.00	0.1163
3142.00	0.1163
3143.00	0.1162
3144.00	0.1160
3145.00	0.1160
3146.00	0.1161
3147.00	0.1157
3148.00	0.1161
3149.00	0.1161
3150.00	0.1157
3151.00	0.1155
3152.00	0.1154
3153.00	0.1155
3154.00	0.1155
3155.00	0.1152
3156.00	0.1152
3157.00	0.1151
3158.00	0.1153
3159.00	0.1154
3160.00	0.1150
3161.00	0.1151
3162.00	0.1151
3163.00	0.1150
3164.00	0.1154
3165.00	0.1154
3166.00	0.1151
3167.00	0.1154
3168.00	0.1154
3169.00	0.1158
3170.00	0.1154
3171.00	0.1153
3172.00	0.1157
3173.00	0.1157
3174.00	0.1162
3175.00	0.1159
3176.00	0.1158
3177.00	0.1162
3178.00	0.1162
3179.00	0.1157
3180.00	0.1158
3181.00	0.1156
3182.00	0.1156
3183.00	0.1163
3184.00	0.1160
3185.00	0.1158
3186.00	0.1159
3187.00	0.1161
3188.00	0.1158
3189.00	0.1158
3190.00	0.1161
3191.00	0.1157
3192.00	0.1155
3193.00	0.1153
3194.00	0.1150
3195.00	0.1148
3196.00	0.1154
3197.00	0.1156
3198.00	0.1158
3199.00	0.1155
3200.00	0.1148
3201.00	0.1146
3202.00	0.1146
3203.00	0.1147
3204.00	0.1141
3205.00	0.1141
3206.00	0.1141
3207.00	0.1132
3208.00	0.1125
3209.00	0.1131
3210.00	0.1133
3211.00	0.1137
3212.00	0.1139
3213.00	0.1135
3214.00	0.1129
3215.00	0.1122
3216.00	0.1114
3217.00	0.1114
3218.00	0.1116
3219.00	0.1118
3220.00	0.1111
3221.00	0.1108
3222.00	0.1110
3223.00	0.1111
3224.00	0.1112
3225.00	0.1122
3226.00	0.1113
3227.00	0.1105
3228.00	0.1103
3229.00	0.1097
3230.00	0.1102
3231.00	0.1109
3232.00	0.1108
3233.00	0.1113
3234.00	0.1108
3235.00	0.1113
3236.00	0.1101
3237.00	0.1114
3238.00	0.1124
3239.00	0.1123
3240.00	0.1113
3241.00	0.1118
3242.00	0.1109
3243.00	0.1119
3244.00	0.1127
3245.00	0.1111
3246.00	0.1112
3247.00	0.1113
3248.00	0.1105
3249.00	0.1113
3250.00	0.1117
3251.00	0.1121
3252.00	0.1109
3253.00	0.1115
3254.00	0.1091
3255.00	0.1083
3256.00	0.1086
3257.00	0.1103
3258.00	0.1110
3259.00	0.1123
3260.00	0.1109
3261.00	0.1107
3262.00	0.1101
3263.00	0.1087
3264.00	0.1087
3265.00	0.1097
3266.00	0.1082
3267.00	0.1070
3268.00	0.1054
3269.00	0.1053
3270.00	0.1052
3271.00	0.1050
3272.00	0.1021
3273.00	0.1017
3274.00	0.1006
3275.00	0.0981
3276.00	0.0976
3277.00	0.0966
3278.00	0.0986
3279.00	0.1006
3280.00	0.1014
3281.00	0.1016
3282.00	0.1023
3283.00	0.1015
3284.00	0.1008
3285.00	0.1034
3286.00	0.1048
3287.00	0.1063
3288.00	0.1060
3289.00	0.1117
3290.00	0.1097
3291.00	0.1083
3292.00	0.1117
3293.00	0.1128
3294.00	0.1163
3295.00	0.1157
3296.00	0.1170
3297.00	0.1193
3298.00	0.1201
3299.00	0.1202
3300.00	0.1236
