"20-30mM-1_Toluene30mM - RawData"
"Wavelength nm."	"Abs."
300.00	0.2028
301.00	0.2037
302.00	0.2041
303.00	0.2046
304.00	0.2050
305.00	0.2053
306.00	0.2055
307.00	0.2064
308.00	0.2077
309.00	0.2087
310.00	0.2093
311.00	0.2099
312.00	0.2111
313.00	0.2120
314.00	0.2131
315.00	0.2150
316.00	0.2169
317.00	0.2183
318.00	0.2199
319.00	0.2217
320.00	0.2231
321.00	0.2246
322.00	0.2261
323.00	0.2275
324.00	0.2289
325.00	0.2305
326.00	0.2323
327.00	0.2342
328.00	0.2362
329.00	0.2379
330.00	0.2397
331.00	0.2409
332.00	0.2415
333.00	0.2428
334.00	0.2445
335.00	0.2465
336.00	0.2489
337.00	0.2516
338.00	0.2539
339.00	0.2561
340.00	0.2586
341.00	0.2606
342.00	0.2625
343.00	0.2646
344.00	0.2664
345.00	0.2683
346.00	0.2704
347.00	0.2725
348.00	0.2744
349.00	0.2763
350.00	0.2779
351.00	0.2798
352.00	0.2817
353.00	0.2837
354.00	0.2856
355.00	0.2874
356.00	0.2893
357.00	0.2912
358.00	0.2931
359.00	0.2952
360.00	0.2974
361.00	0.2995
362.00	0.3011
363.00	0.3035
364.00	0.3061
365.00	0.3087
366.00	0.3115
367.00	0.3148
368.00	0.3172
369.00	0.3200
370.00	0.3230
371.00	0.3267
372.00	0.3294
373.00	0.3323
374.00	0.3349
375.00	0.3374
376.00	0.3396
377.00	0.3429
378.00	0.3462
379.00	0.3495
380.00	0.3530
381.00	0.3568
382.00	0.3607
383.00	0.3652
384.00	0.3699
385.00	0.3744
386.00	0.3789
387.00	0.3833
388.00	0.3872
389.00	0.3911
390.00	0.3950
391.00	0.3988
392.00	0.4027
393.00	0.4065
394.00	0.4101
395.00	0.4136
396.00	0.4169
397.00	0.4200
398.00	0.4233
399.00	0.4264
400.00	0.4296
401.00	0.4330
402.00	0.4365
403.00	0.4402
404.00	0.4441
405.00	0.4480
406.00	0.4518
407.00	0.4557
408.00	0.4593
409.00	0.4627
410.00	0.4660
411.00	0.4688
412.00	0.4714
413.00	0.4736
414.00	0.4755
415.00	0.4769
416.00	0.4780
417.00	0.4787
418.00	0.4790
419.00	0.4789
420.00	0.4784
421.00	0.4775
422.00	0.4763
423.00	0.4747
424.00	0.4728
425.00	0.4706
426.00	0.4683
427.00	0.4658
428.00	0.4638
429.00	0.4624
430.00	0.4610
431.00	0.4595
432.00	0.4585
433.00	0.4572
434.00	0.4556
435.00	0.4545
436.00	0.4538
437.00	0.4531
438.00	0.4524
439.00	0.4516
440.00	0.4509
441.00	0.4501
442.00	0.4495
443.00	0.4491
444.00	0.4489
445.00	0.4489
446.00	0.4492
447.00	0.4494
448.00	0.4497
449.00	0.4502
450.00	0.4508
451.00	0.4517
452.00	0.4526
453.00	0.4538
454.00	0.4551
455.00	0.4566
456.00	0.4580
457.00	0.4597
458.00	0.4613
459.00	0.4630
460.00	0.4650
461.00	0.4669
462.00	0.4690
463.00	0.4706
464.00	0.4724
465.00	0.4740
466.00	0.4757
467.00	0.4773
468.00	0.4792
469.00	0.4807
470.00	0.4822
471.00	0.4838
472.00	0.4851
473.00	0.4864
474.00	0.4880
475.00	0.4894
476.00	0.4908
477.00	0.4925
478.00	0.4939
479.00	0.4954
480.00	0.4966
481.00	0.4977
482.00	0.4987
483.00	0.4998
484.00	0.5007
485.00	0.5016
486.00	0.5025
487.00	0.5031
488.00	0.5037
489.00	0.5042
490.00	0.5048
491.00	0.5052
492.00	0.5057
493.00	0.5062
494.00	0.5066
495.00	0.5069
496.00	0.5072
497.00	0.5075
498.00	0.5076
499.00	0.5076
500.00	0.5076
501.00	0.5075
502.00	0.5073
503.00	0.5070
504.00	0.5067
505.00	0.5062
506.00	0.5057
507.00	0.5053
508.00	0.5047
509.00	0.5039
510.00	0.5031
511.00	0.5023
512.00	0.5013
513.00	0.5001
514.00	0.4987
515.00	0.4974
516.00	0.4959
517.00	0.4943
518.00	0.4927
519.00	0.4912
520.00	0.4896
521.00	0.4881
522.00	0.4867
523.00	0.4852
524.00	0.4833
525.00	0.4811
526.00	0.4790
527.00	0.4769
528.00	0.4750
529.00	0.4734
530.00	0.4719
531.00	0.4705
532.00	0.4684
533.00	0.4662
534.00	0.4639
535.00	0.4618
536.00	0.4592
537.00	0.4574
538.00	0.4555
539.00	0.4539
540.00	0.4518
541.00	0.4499
542.00	0.4478
543.00	0.4457
544.00	0.4437
545.00	0.4416
546.00	0.4397
547.00	0.4377
548.00	0.4358
549.00	0.4337
550.00	0.4319
551.00	0.4301
552.00	0.4283
553.00	0.4264
554.00	0.4244
555.00	0.4222
556.00	0.4202
557.00	0.4181
558.00	0.4159
559.00	0.4138
560.00	0.4117
561.00	0.4097
562.00	0.4077
563.00	0.4058
564.00	0.4039
565.00	0.4019
566.00	0.3996
567.00	0.3972
568.00	0.3947
569.00	0.3924
570.00	0.3903
571.00	0.3882
572.00	0.3862
573.00	0.3841
574.00	0.3819
575.00	0.3795
576.00	0.3771
577.00	0.3747
578.00	0.3725
579.00	0.3704
580.00	0.3683
581.00	0.3661
582.00	0.3639
583.00	0.3616
584.00	0.3592
585.00	0.3567
586.00	0.3544
587.00	0.3519
588.00	0.3494
589.00	0.3470
590.00	0.3445
591.00	0.3420
592.00	0.3395
593.00	0.3370
594.00	0.3344
595.00	0.3321
596.00	0.3297
597.00	0.3274
598.00	0.3252
599.00	0.3232
600.00	0.3211
601.00	0.3191
602.00	0.3171
603.00	0.3148
604.00	0.3127
605.00	0.3106
606.00	0.3085
607.00	0.3065
608.00	0.3046
609.00	0.3027
610.00	0.3011
611.00	0.2995
612.00	0.2979
613.00	0.2961
614.00	0.2943
615.00	0.2925
616.00	0.2910
617.00	0.2898
618.00	0.2887
619.00	0.2877
620.00	0.2865
621.00	0.2851
622.00	0.2835
623.00	0.2825
624.00	0.2816
625.00	0.2808
626.00	0.2800
627.00	0.2793
628.00	0.2782
629.00	0.2776
630.00	0.2772
631.00	0.2767
632.00	0.2759
633.00	0.2754
634.00	0.2751
635.00	0.2745
636.00	0.2738
637.00	0.2735
638.00	0.2732
639.00	0.2723
640.00	0.2718
641.00	0.2715
642.00	0.2714
643.00	0.2713
644.00	0.2712
645.00	0.2710
646.00	0.2710
647.00	0.2708
648.00	0.2706
649.00	0.2708
650.00	0.2709
651.00	0.2709
652.00	0.2711
653.00	0.2712
654.00	0.2711
655.00	0.2710
656.00	0.2710
657.00	0.2712
658.00	0.2712
659.00	0.2717
660.00	0.2721
661.00	0.2726
662.00	0.2729
663.00	0.2733
664.00	0.2733
665.00	0.2736
666.00	0.2740
667.00	0.2743
668.00	0.2746
669.00	0.2749
670.00	0.2761
671.00	0.2768
672.00	0.2776
673.00	0.2782
674.00	0.2787
675.00	0.2783
676.00	0.2787
677.00	0.2791
678.00	0.2794
679.00	0.2799
680.00	0.2806
681.00	0.2809
682.00	0.2812
683.00	0.2818
684.00	0.2823
685.00	0.2827
686.00	0.2830
687.00	0.2835
688.00	0.2837
689.00	0.2839
690.00	0.2838
691.00	0.2844
692.00	0.2845
693.00	0.2846
694.00	0.2850
695.00	0.2854
696.00	0.2851
697.00	0.2852
698.00	0.2852
699.00	0.2852
700.00	0.2854
701.00	0.2858
702.00	0.2862
703.00	0.2866
704.00	0.2867
705.00	0.2868
706.00	0.2869
707.00	0.2869
708.00	0.2870
709.00	0.2873
710.00	0.2878
711.00	0.2880
712.00	0.2881
713.00	0.2881
714.00	0.2881
715.00	0.2879
716.00	0.2882
717.00	0.2883
718.00	0.2882
719.00	0.2884
720.00	0.2887
721.00	0.2889
722.00	0.2893
723.00	0.2897
724.00	0.2895
725.00	0.2898
726.00	0.2893
727.00	0.2898
728.00	0.2903
729.00	0.2915
730.00	0.2920
731.00	0.2932
732.00	0.2936
733.00	0.2944
734.00	0.2950
735.00	0.2955
736.00	0.2962
737.00	0.2969
738.00	0.2977
739.00	0.2985
740.00	0.2994
741.00	0.3004
742.00	0.3013
743.00	0.3021
744.00	0.3030
745.00	0.3038
746.00	0.3047
747.00	0.3055
748.00	0.3067
749.00	0.3074
750.00	0.3082
751.00	0.3091
752.00	0.3102
753.00	0.3102
754.00	0.3110
755.00	0.3117
756.00	0.3122
757.00	0.3125
758.00	0.3135
759.00	0.3143
760.00	0.3148
761.00	0.3153
762.00	0.3161
763.00	0.3169
764.00	0.3174
765.00	0.3179
766.00	0.3184
767.00	0.3186
768.00	0.3185
769.00	0.3185
770.00	0.3178
771.00	0.3172
772.00	0.3166
773.00	0.3160
774.00	0.3149
775.00	0.3148
776.00	0.3139
777.00	0.3132
778.00	0.3126
779.00	0.3126
780.00	0.3114
781.00	0.3105
782.00	0.3093
783.00	0.3080
784.00	0.3065
785.00	0.3059
786.00	0.3052
787.00	0.3043
788.00	0.3034
789.00	0.3026
790.00	0.3013
791.00	0.3001
792.00	0.2988
793.00	0.2975
794.00	0.2963
795.00	0.2949
796.00	0.2933
797.00	0.2915
798.00	0.2899
799.00	0.2883
800.00	0.2867
801.00	0.2855
802.00	0.2847
803.00	0.2835
804.00	0.2822
805.00	0.2810
806.00	0.2797
807.00	0.2785
808.00	0.2777
809.00	0.2767
810.00	0.2758
811.00	0.2751
812.00	0.2744
813.00	0.2735
814.00	0.2729
815.00	0.2724
816.00	0.2718
817.00	0.2714
818.00	0.2711
819.00	0.2709
820.00	0.2708
821.00	0.2706
822.00	0.2705
823.00	0.2702
824.00	0.2701
825.00	0.2701
826.00	0.2702
827.00	0.2704
828.00	0.2708
829.00	0.2710
830.00	0.2715
831.00	0.2726
832.00	0.2730
833.00	0.2736
834.00	0.2741
835.00	0.2747
836.00	0.2751
837.00	0.2759
838.00	0.2766
839.00	0.2776
840.00	0.2785
841.00	0.2798
842.00	0.2808
843.00	0.2819
844.00	0.2833
845.00	0.2845
846.00	0.2857
847.00	0.2872
848.00	0.2886
849.00	0.2897
850.00	0.2908
851.00	0.2918
852.00	0.2922
853.00	0.2927
854.00	0.2932
855.00	0.2938
856.00	0.2940
857.00	0.2943
858.00	0.2945
859.00	0.2947
860.00	0.2949
861.00	0.2951
862.00	0.2953
863.00	0.2956
864.00	0.2957
865.00	0.2955
866.00	0.2956
867.00	0.2956
868.00	0.2956
869.00	0.2955
870.00	0.2956
871.00	0.2953
872.00	0.2952
873.00	0.2949
874.00	0.2945
875.00	0.2939
876.00	0.2934
877.00	0.2924
878.00	0.2912
879.00	0.2899
880.00	0.2885
881.00	0.2871
882.00	0.2858
883.00	0.2843
884.00	0.2826
885.00	0.2809
886.00	0.2791
887.00	0.2770
888.00	0.2751
889.00	0.2734
890.00	0.2714
891.00	0.2697
892.00	0.2678
893.00	0.2660
894.00	0.2642
895.00	0.2625
896.00	0.2607
897.00	0.2591
898.00	0.2573
899.00	0.2556
900.00	0.2538
901.00	0.2520
902.00	0.2501
903.00	0.2484
904.00	0.2467
905.00	0.2452
906.00	0.2435
907.00	0.2421
908.00	0.2406
909.00	0.2390
910.00	0.2376
911.00	0.2362
912.00	0.2348
913.00	0.2333
914.00	0.2317
915.00	0.2302
916.00	0.2287
917.00	0.2273
918.00	0.2260
919.00	0.2248
920.00	0.2237
921.00	0.2223
922.00	0.2209
923.00	0.2195
924.00	0.2181
925.00	0.2166
926.00	0.2155
927.00	0.2143
928.00	0.2130
929.00	0.2119
930.00	0.2106
931.00	0.2093
932.00	0.2081
933.00	0.2068
934.00	0.2056
935.00	0.2046
936.00	0.2037
937.00	0.2025
938.00	0.2014
939.00	0.2003
940.00	0.1991
941.00	0.1980
942.00	0.1972
943.00	0.1962
944.00	0.1951
945.00	0.1938
946.00	0.1928
947.00	0.1915
948.00	0.1906
949.00	0.1896
950.00	0.1888
951.00	0.1878
952.00	0.1869
953.00	0.1857
954.00	0.1846
955.00	0.1835
956.00	0.1823
957.00	0.1814
958.00	0.1806
959.00	0.1795
960.00	0.1786
961.00	0.1777
962.00	0.1767
963.00	0.1756
964.00	0.1749
965.00	0.1739
966.00	0.1730
967.00	0.1720
968.00	0.1709
969.00	0.1698
970.00	0.1688
971.00	0.1680
972.00	0.1670
973.00	0.1662
974.00	0.1652
975.00	0.1643
976.00	0.1633
977.00	0.1625
978.00	0.1615
979.00	0.1606
980.00	0.1598
981.00	0.1588
982.00	0.1580
983.00	0.1573
984.00	0.1566
985.00	0.1559
986.00	0.1553
987.00	0.1544
988.00	0.1537
989.00	0.1526
990.00	0.1518
991.00	0.1513
992.00	0.1500
993.00	0.1489
994.00	0.1482
995.00	0.1473
996.00	0.1461
997.00	0.1458
998.00	0.1453
999.00	0.1446
1000.00	0.1437
1001.00	0.1428
1002.00	0.1420
1003.00	0.1408
1004.00	0.1401
1005.00	0.1394
1006.00	0.1386
1007.00	0.1379
1008.00	0.1375
1009.00	0.1365
1010.00	0.1359
1011.00	0.1351
1012.00	0.1343
1013.00	0.1335
1014.00	0.1327
1015.00	0.1320
1016.00	0.1312
1017.00	0.1306
1018.00	0.1299
1019.00	0.1292
1020.00	0.1286
1021.00	0.1281
1022.00	0.1273
1023.00	0.1268
1024.00	0.1255
1025.00	0.1243
1026.00	0.1236
1027.00	0.1228
1028.00	0.1219
1029.00	0.1218
1030.00	0.1214
1031.00	0.1209
1032.00	0.1203
1033.00	0.1196
1034.00	0.1191
1035.00	0.1182
1036.00	0.1179
1037.00	0.1178
1038.00	0.1168
1039.00	0.1162
1040.00	0.1160
1041.00	0.1150
1042.00	0.1140
1043.00	0.1136
1044.00	0.1131
1045.00	0.1125
1046.00	0.1119
1047.00	0.1114
1048.00	0.1106
1049.00	0.1100
1050.00	0.1092
1051.00	0.1086
1052.00	0.1080
1053.00	0.1078
1054.00	0.1071
1055.00	0.1069
1056.00	0.1064
1057.00	0.1060
1058.00	0.1060
1059.00	0.1056
1060.00	0.1050
1061.00	0.1046
1062.00	0.1040
1063.00	0.1031
1064.00	0.1026
1065.00	0.1022
1066.00	0.1013
1067.00	0.1010
1068.00	0.1007
1069.00	0.1001
1070.00	0.0998
1071.00	0.0994
1072.00	0.0988
1073.00	0.0982
1074.00	0.0979
1075.00	0.0973
1076.00	0.0970
1077.00	0.0966
1078.00	0.0963
1079.00	0.0958
1080.00	0.0954
1081.00	0.0951
1082.00	0.0946
1083.00	0.0943
1084.00	0.0939
1085.00	0.0934
1086.00	0.0928
1087.00	0.0926
1088.00	0.0921
1089.00	0.0919
1090.00	0.0917
1091.00	0.0915
1092.00	0.0909
1093.00	0.0910
1094.00	0.0906
1095.00	0.0903
1096.00	0.0899
1097.00	0.0900
1098.00	0.0893
1099.00	0.0892
1100.00	0.0890
1101.00	0.0887
1102.00	0.0884
1103.00	0.0882
1104.00	0.0877
1105.00	0.0876
1106.00	0.0874
1107.00	0.0870
1108.00	0.0867
1109.00	0.0865
1110.00	0.0860
1111.00	0.0857
1112.00	0.0855
1113.00	0.0853
1114.00	0.0851
1115.00	0.0850
1116.00	0.0844
1117.00	0.0842
1118.00	0.0840
1119.00	0.0837
1120.00	0.0835
1121.00	0.0836
1122.00	0.0835
1123.00	0.0832
1124.00	0.0830
1125.00	0.0829
1126.00	0.0828
1127.00	0.0827
1128.00	0.0825
1129.00	0.0824
1130.00	0.0822
1131.00	0.0820
1132.00	0.0818
1133.00	0.0817
1134.00	0.0816
1135.00	0.0815
1136.00	0.0814
1137.00	0.0812
1138.00	0.0812
1139.00	0.0809
1140.00	0.0808
1141.00	0.0806
1142.00	0.0803
1143.00	0.0800
1144.00	0.0801
1145.00	0.0799
1146.00	0.0798
1147.00	0.0800
1148.00	0.0801
1149.00	0.0800
1150.00	0.0800
1151.00	0.0801
1152.00	0.0798
1153.00	0.0795
1154.00	0.0792
1155.00	0.0791
1156.00	0.0789
1157.00	0.0788
1158.00	0.0788
1159.00	0.0790
1160.00	0.0791
1161.00	0.0790
1162.00	0.0789
1163.00	0.0788
1164.00	0.0787
1165.00	0.0783
1166.00	0.0782
1167.00	0.0782
1168.00	0.0783
1169.00	0.0782
1170.00	0.0784
1171.00	0.0784
1172.00	0.0784
1173.00	0.0784
1174.00	0.0783
1175.00	0.0781
1176.00	0.0780
1177.00	0.0780
1178.00	0.0778
1179.00	0.0779
1180.00	0.0778
1181.00	0.0779
1182.00	0.0779
1183.00	0.0779
1184.00	0.0779
1185.00	0.0779
1186.00	0.0778
1187.00	0.0779
1188.00	0.0780
1189.00	0.0778
1190.00	0.0779
1191.00	0.0780
1192.00	0.0778
1193.00	0.0774
1194.00	0.0778
1195.00	0.0780
1196.00	0.0779
1197.00	0.0781
1198.00	0.0784
1199.00	0.0783
1200.00	0.0781
1201.00	0.0781
1202.00	0.0781
1203.00	0.0785
1204.00	0.0787
1205.00	0.0788
1206.00	0.0787
1207.00	0.0788
1208.00	0.0785
1209.00	0.0782
1210.00	0.0783
1211.00	0.0783
1212.00	0.0783
1213.00	0.0786
1214.00	0.0785
1215.00	0.0785
1216.00	0.0786
1217.00	0.0786
1218.00	0.0786
1219.00	0.0787
1220.00	0.0785
1221.00	0.0787
1222.00	0.0789
1223.00	0.0787
1224.00	0.0785
1225.00	0.0788
1226.00	0.0788
1227.00	0.0788
1228.00	0.0789
1229.00	0.0792
1230.00	0.0791
1231.00	0.0790
1232.00	0.0792
1233.00	0.0794
1234.00	0.0795
1235.00	0.0797
1236.00	0.0799
1237.00	0.0798
1238.00	0.0798
1239.00	0.0799
1240.00	0.0799
1241.00	0.0799
1242.00	0.0798
1243.00	0.0800
1244.00	0.0800
1245.00	0.0803
1246.00	0.0805
1247.00	0.0806
1248.00	0.0807
1249.00	0.0807
1250.00	0.0805
1251.00	0.0805
1252.00	0.0808
1253.00	0.0809
1254.00	0.0808
1255.00	0.0812
1256.00	0.0813
1257.00	0.0815
1258.00	0.0816
1259.00	0.0819
1260.00	0.0818
1261.00	0.0819
1262.00	0.0819
1263.00	0.0821
1264.00	0.0824
1265.00	0.0823
1266.00	0.0822
1267.00	0.0822
1268.00	0.0822
1269.00	0.0824
1270.00	0.0828
1271.00	0.0832
1272.00	0.0834
1273.00	0.0833
1274.00	0.0834
1275.00	0.0834
1276.00	0.0835
1277.00	0.0837
1278.00	0.0840
1279.00	0.0842
1280.00	0.0844
1281.00	0.0846
1282.00	0.0847
1283.00	0.0848
1284.00	0.0846
1285.00	0.0843
1286.00	0.0842
1287.00	0.0842
1288.00	0.0842
1289.00	0.0845
1290.00	0.0849
1291.00	0.0852
1292.00	0.0856
1293.00	0.0858
1294.00	0.0858
1295.00	0.0860
1296.00	0.0856
1297.00	0.0851
1298.00	0.0853
1299.00	0.0855
1300.00	0.0857
1301.00	0.0864
1302.00	0.0870
1303.00	0.0873
1304.00	0.0877
1305.00	0.0877
1306.00	0.0879
1307.00	0.0881
1308.00	0.0879
1309.00	0.0882
1310.00	0.0885
1311.00	0.0885
1312.00	0.0890
1313.00	0.0893
1314.00	0.0894
1315.00	0.0897
1316.00	0.0900
1317.00	0.0900
1318.00	0.0900
1319.00	0.0901
1320.00	0.0899
1321.00	0.0900
1322.00	0.0903
1323.00	0.0907
1324.00	0.0909
1325.00	0.0912
1326.00	0.0914
1327.00	0.0914
1328.00	0.0916
1329.00	0.0917
1330.00	0.0920
1331.00	0.0922
1332.00	0.0922
1333.00	0.0923
1334.00	0.0926
1335.00	0.0927
1336.00	0.0929
1337.00	0.0932
1338.00	0.0935
1339.00	0.0937
1340.00	0.0940
1341.00	0.0942
1342.00	0.0944
1343.00	0.0946
1344.00	0.0945
1345.00	0.0948
1346.00	0.0948
1347.00	0.0950
1348.00	0.0953
1349.00	0.0957
1350.00	0.0958
1351.00	0.0962
1352.00	0.0965
1353.00	0.0968
1354.00	0.0973
1355.00	0.0974
1356.00	0.0976
1357.00	0.0981
1358.00	0.0984
1359.00	0.0986
1360.00	0.0994
1361.00	0.0998
1362.00	0.0999
1363.00	0.1002
1364.00	0.1004
1365.00	0.1007
1366.00	0.1009
1367.00	0.1011
1368.00	0.1012
1369.00	0.1016
1370.00	0.1018
1371.00	0.1021
1372.00	0.1025
1373.00	0.1029
1374.00	0.1033
1375.00	0.1035
1376.00	0.1038
1377.00	0.1040
1378.00	0.1045
1379.00	0.1046
1380.00	0.1049
1381.00	0.1051
1382.00	0.1052
1383.00	0.1055
1384.00	0.1059
1385.00	0.1062
1386.00	0.1064
1387.00	0.1068
1388.00	0.1072
1389.00	0.1076
1390.00	0.1078
1391.00	0.1080
1392.00	0.1084
1393.00	0.1086
1394.00	0.1087
1395.00	0.1092
1396.00	0.1100
1397.00	0.1103
1398.00	0.1107
1399.00	0.1111
1400.00	0.1117
1401.00	0.1119
1402.00	0.1124
1403.00	0.1127
1404.00	0.1129
1405.00	0.1132
1406.00	0.1134
1407.00	0.1137
1408.00	0.1141
1409.00	0.1146
1410.00	0.1148
1411.00	0.1151
1412.00	0.1153
1413.00	0.1157
1414.00	0.1161
1415.00	0.1165
1416.00	0.1166
1417.00	0.1170
1418.00	0.1173
1419.00	0.1175
1420.00	0.1178
1421.00	0.1179
1422.00	0.1182
1423.00	0.1184
1424.00	0.1187
1425.00	0.1190
1426.00	0.1200
1427.00	0.1206
1428.00	0.1208
1429.00	0.1210
1430.00	0.1215
1431.00	0.1215
1432.00	0.1217
1433.00	0.1223
1434.00	0.1227
1435.00	0.1231
1436.00	0.1237
1437.00	0.1238
1438.00	0.1235
1439.00	0.1239
1440.00	0.1241
1441.00	0.1241
1442.00	0.1245
1443.00	0.1254
1444.00	0.1256
1445.00	0.1258
1446.00	0.1262
1447.00	0.1266
1448.00	0.1272
1449.00	0.1278
1450.00	0.1283
1451.00	0.1287
1452.00	0.1289
1453.00	0.1289
1454.00	0.1292
1455.00	0.1294
1456.00	0.1297
1457.00	0.1304
1458.00	0.1312
1459.00	0.1314
1460.00	0.1317
1461.00	0.1321
1462.00	0.1326
1463.00	0.1330
1464.00	0.1333
1465.00	0.1337
1466.00	0.1340
1467.00	0.1340
1468.00	0.1341
1469.00	0.1346
1470.00	0.1353
1471.00	0.1361
1472.00	0.1366
1473.00	0.1374
1474.00	0.1380
1475.00	0.1382
1476.00	0.1380
1477.00	0.1382
1478.00	0.1382
1479.00	0.1385
1480.00	0.1388
1481.00	0.1393
1482.00	0.1400
1483.00	0.1405
1484.00	0.1402
1485.00	0.1407
1486.00	0.1409
1487.00	0.1411
1488.00	0.1418
1489.00	0.1429
1490.00	0.1431
1491.00	0.1437
1492.00	0.1441
1493.00	0.1443
1494.00	0.1447
1495.00	0.1453
1496.00	0.1458
1497.00	0.1463
1498.00	0.1465
1499.00	0.1467
1500.00	0.1472
1501.00	0.1475
1502.00	0.1477
1503.00	0.1482
1504.00	0.1485
1505.00	0.1489
1506.00	0.1496
1507.00	0.1501
1508.00	0.1508
1509.00	0.1513
1510.00	0.1517
1511.00	0.1520
1512.00	0.1522
1513.00	0.1525
1514.00	0.1530
1515.00	0.1534
1516.00	0.1534
1517.00	0.1540
1518.00	0.1545
1519.00	0.1549
1520.00	0.1552
1521.00	0.1561
1522.00	0.1565
1523.00	0.1570
1524.00	0.1573
1525.00	0.1577
1526.00	0.1581
1527.00	0.1585
1528.00	0.1589
1529.00	0.1590
1530.00	0.1593
1531.00	0.1595
1532.00	0.1600
1533.00	0.1600
1534.00	0.1607
1535.00	0.1614
1536.00	0.1618
1537.00	0.1622
1538.00	0.1626
1539.00	0.1630
1540.00	0.1633
1541.00	0.1637
1542.00	0.1640
1543.00	0.1646
1544.00	0.1650
1545.00	0.1654
1546.00	0.1658
1547.00	0.1662
1548.00	0.1667
1549.00	0.1671
1550.00	0.1676
1551.00	0.1679
1552.00	0.1685
1553.00	0.1688
1554.00	0.1693
1555.00	0.1694
1556.00	0.1699
1557.00	0.1703
1558.00	0.1708
1559.00	0.1712
1560.00	0.1716
1561.00	0.1721
1562.00	0.1726
1563.00	0.1731
1564.00	0.1734
1565.00	0.1740
1566.00	0.1744
1567.00	0.1745
1568.00	0.1748
1569.00	0.1754
1570.00	0.1758
1571.00	0.1764
1572.00	0.1768
1573.00	0.1773
1574.00	0.1778
1575.00	0.1783
1576.00	0.1786
1577.00	0.1792
1578.00	0.1799
1579.00	0.1801
1580.00	0.1803
1581.00	0.1808
1582.00	0.1811
1583.00	0.1816
1584.00	0.1820
1585.00	0.1824
1586.00	0.1829
1587.00	0.1834
1588.00	0.1837
1589.00	0.1844
1590.00	0.1847
1591.00	0.1848
1592.00	0.1853
1593.00	0.1855
1594.00	0.1856
1595.00	0.1861
1596.00	0.1869
1597.00	0.1872
1598.00	0.1877
1599.00	0.1882
1600.00	0.1889
1601.00	0.1894
1602.00	0.1899
1603.00	0.1903
1604.00	0.1906
1605.00	0.1910
1606.00	0.1912
1607.00	0.1913
1608.00	0.1918
1609.00	0.1925
1610.00	0.1927
1611.00	0.1932
1612.00	0.1937
1613.00	0.1941
1614.00	0.1945
1615.00	0.1948
1616.00	0.1951
1617.00	0.1957
1618.00	0.1960
1619.00	0.1961
1620.00	0.1965
1621.00	0.1969
1622.00	0.1972
1623.00	0.1975
1624.00	0.1983
1625.00	0.1990
1626.00	0.1995
1627.00	0.2001
1628.00	0.2006
1629.00	0.2007
1630.00	0.2007
1631.00	0.2011
1632.00	0.2013
1633.00	0.2014
1634.00	0.2011
1635.00	0.2015
1636.00	0.2019
1637.00	0.2019
1638.00	0.2023
1639.00	0.2033
1640.00	0.2035
1641.00	0.2035
1642.00	0.2039
1643.00	0.2041
1644.00	0.2043
1645.00	0.2042
1646.00	0.2042
1647.00	0.2041
1648.00	0.2042
1649.00	0.2041
1650.00	0.2040
1651.00	0.2041
1652.00	0.2039
1653.00	0.2037
1654.00	0.2037
1655.00	0.2037
1656.00	0.2036
1657.00	0.2035
1658.00	0.2036
1659.00	0.2039
1660.00	0.2039
1661.00	0.2043
1662.00	0.2047
1663.00	0.2050
1664.00	0.2050
1665.00	0.2053
1666.00	0.2055
1667.00	0.2057
1668.00	0.2061
1669.00	0.2066
1670.00	0.2070
1671.00	0.2072
1672.00	0.2076
1673.00	0.2080
1674.00	0.2084
1675.00	0.2089
1676.00	0.2095
1677.00	0.2099
1678.00	0.2099
1679.00	0.2101
1680.00	0.2102
1681.00	0.2105
1682.00	0.2107
1683.00	0.2109
1684.00	0.2112
1685.00	0.2116
1686.00	0.2118
1687.00	0.2124
1688.00	0.2132
1689.00	0.2137
1690.00	0.2139
1691.00	0.2141
1692.00	0.2140
1693.00	0.2141
1694.00	0.2141
1695.00	0.2143
1696.00	0.2147
1697.00	0.2152
1698.00	0.2157
1699.00	0.2163
1700.00	0.2165
1701.00	0.2170
1702.00	0.2175
1703.00	0.2176
1704.00	0.2174
1705.00	0.2177
1706.00	0.2178
1707.00	0.2178
1708.00	0.2182
1709.00	0.2187
1710.00	0.2192
1711.00	0.2195
1712.00	0.2202
1713.00	0.2207
1714.00	0.2212
1715.00	0.2216
1716.00	0.2220
1717.00	0.2220
1718.00	0.2219
1719.00	0.2218
1720.00	0.2221
1721.00	0.2222
1722.00	0.2226
1723.00	0.2231
1724.00	0.2233
1725.00	0.2236
1726.00	0.2242
1727.00	0.2245
1728.00	0.2250
1729.00	0.2255
1730.00	0.2259
1731.00	0.2260
1732.00	0.2261
1733.00	0.2264
1734.00	0.2266
1735.00	0.2268
1736.00	0.2273
1737.00	0.2277
1738.00	0.2277
1739.00	0.2283
1740.00	0.2287
1741.00	0.2291
1742.00	0.2293
1743.00	0.2299
1744.00	0.2301
1745.00	0.2302
1746.00	0.2304
1747.00	0.2306
1748.00	0.2308
1749.00	0.2308
1750.00	0.2313
1751.00	0.2316
1752.00	0.2320
1753.00	0.2324
1754.00	0.2326
1755.00	0.2331
1756.00	0.2334
1757.00	0.2337
1758.00	0.2338
1759.00	0.2342
1760.00	0.2341
1761.00	0.2342
1762.00	0.2343
1763.00	0.2345
1764.00	0.2349
1765.00	0.2355
1766.00	0.2360
1767.00	0.2363
1768.00	0.2368
1769.00	0.2370
1770.00	0.2371
1771.00	0.2373
1772.00	0.2375
1773.00	0.2375
1774.00	0.2379
1775.00	0.2382
1776.00	0.2385
1777.00	0.2388
1778.00	0.2391
1779.00	0.2390
1780.00	0.2393
1781.00	0.2395
1782.00	0.2399
1783.00	0.2403
1784.00	0.2408
1785.00	0.2411
1786.00	0.2414
1787.00	0.2417
1788.00	0.2419
1789.00	0.2421
1790.00	0.2421
1791.00	0.2420
1792.00	0.2421
1793.00	0.2423
1794.00	0.2426
1795.00	0.2426
1796.00	0.2432
1797.00	0.2435
1798.00	0.2438
1799.00	0.2441
1800.00	0.2447
1801.00	0.2449
1802.00	0.2452
1803.00	0.2453
1804.00	0.2455
1805.00	0.2455
1806.00	0.2456
1807.00	0.2457
1808.00	0.2462
1809.00	0.2462
1810.00	0.2467
1811.00	0.2470
1812.00	0.2473
1813.00	0.2472
1814.00	0.2474
1815.00	0.2474
1816.00	0.2474
1817.00	0.2475
1818.00	0.2478
1819.00	0.2481
1820.00	0.2482
1821.00	0.2485
1822.00	0.2489
1823.00	0.2491
1824.00	0.2493
1825.00	0.2498
1826.00	0.2502
1827.00	0.2503
1828.00	0.2504
1829.00	0.2507
1830.00	0.2509
1831.00	0.2511
1832.00	0.2514
1833.00	0.2519
1834.00	0.2522
1835.00	0.2522
1836.00	0.2524
1837.00	0.2524
1838.00	0.2523
1839.00	0.2524
1840.00	0.2525
1841.00	0.2526
1842.00	0.2527
1843.00	0.2529
1844.00	0.2530
1845.00	0.2533
1846.00	0.2531
1847.00	0.2531
1848.00	0.2530
1849.00	0.2527
1850.00	0.2528
1851.00	0.2529
1852.00	0.2531
1853.00	0.2534
1854.00	0.2541
1855.00	0.2545
1856.00	0.2547
1857.00	0.2553
1858.00	0.2556
1859.00	0.2558
1860.00	0.2559
1861.00	0.2564
1862.00	0.2563
1863.00	0.2565
1864.00	0.2566
1865.00	0.2569
1866.00	0.2569
1867.00	0.2570
1868.00	0.2573
1869.00	0.2575
1870.00	0.2575
1871.00	0.2577
1872.00	0.2578
1873.00	0.2580
1874.00	0.2582
1875.00	0.2584
1876.00	0.2585
1877.00	0.2586
1878.00	0.2583
1879.00	0.2584
1880.00	0.2586
1881.00	0.2589
1882.00	0.2588
1883.00	0.2591
1884.00	0.2590
1885.00	0.2589
1886.00	0.2589
1887.00	0.2592
1888.00	0.2592
1889.00	0.2594
1890.00	0.2596
1891.00	0.2594
1892.00	0.2592
1893.00	0.2598
1894.00	0.2600
1895.00	0.2600
1896.00	0.2604
1897.00	0.2610
1898.00	0.2612
1899.00	0.2616
1900.00	0.2622
1901.00	0.2630
1902.00	0.2631
1903.00	0.2634
1904.00	0.2637
1905.00	0.2639
1906.00	0.2639
1907.00	0.2640
1908.00	0.2639
1909.00	0.2639
1910.00	0.2639
1911.00	0.2638
1912.00	0.2638
1913.00	0.2636
1914.00	0.2633
1915.00	0.2631
1916.00	0.2631
1917.00	0.2632
1918.00	0.2633
1919.00	0.2636
1920.00	0.2640
1921.00	0.2640
1922.00	0.2641
1923.00	0.2645
1924.00	0.2647
1925.00	0.2646
1926.00	0.2650
1927.00	0.2651
1928.00	0.2653
1929.00	0.2651
1930.00	0.2653
1931.00	0.2654
1932.00	0.2656
1933.00	0.2657
1934.00	0.2658
1935.00	0.2659
1936.00	0.2659
1937.00	0.2661
1938.00	0.2664
1939.00	0.2668
1940.00	0.2670
1941.00	0.2674
1942.00	0.2674
1943.00	0.2672
1944.00	0.2672
1945.00	0.2674
1946.00	0.2671
1947.00	0.2671
1948.00	0.2672
1949.00	0.2672
1950.00	0.2670
1951.00	0.2668
1952.00	0.2667
1953.00	0.2670
1954.00	0.2672
1955.00	0.2675
1956.00	0.2680
1957.00	0.2683
1958.00	0.2684
1959.00	0.2685
1960.00	0.2686
1961.00	0.2688
1962.00	0.2689
1963.00	0.2689
1964.00	0.2689
1965.00	0.2690
1966.00	0.2688
1967.00	0.2690
1968.00	0.2693
1969.00	0.2694
1970.00	0.2695
1971.00	0.2697
1972.00	0.2697
1973.00	0.2695
1974.00	0.2696
1975.00	0.2696
1976.00	0.2698
1977.00	0.2700
1978.00	0.2703
1979.00	0.2705
1980.00	0.2706
1981.00	0.2704
1982.00	0.2703
1983.00	0.2706
1984.00	0.2705
1985.00	0.2706
1986.00	0.2710
1987.00	0.2711
1988.00	0.2711
1989.00	0.2715
1990.00	0.2717
1991.00	0.2719
1992.00	0.2721
1993.00	0.2721
1994.00	0.2719
1995.00	0.2718
1996.00	0.2716
1997.00	0.2717
1998.00	0.2718
1999.00	0.2719
2000.00	0.2723
2001.00	0.2727
2002.00	0.2727
2003.00	0.2727
2004.00	0.2728
2005.00	0.2720
2006.00	0.2722
2007.00	0.2723
2008.00	0.2724
2009.00	0.2726
2010.00	0.2732
2011.00	0.2727
2012.00	0.2727
2013.00	0.2730
2014.00	0.2728
2015.00	0.2728
2016.00	0.2730
2017.00	0.2731
2018.00	0.2728
2019.00	0.2729
2020.00	0.2730
2021.00	0.2729
2022.00	0.2729
2023.00	0.2731
2024.00	0.2732
2025.00	0.2734
2026.00	0.2736
2027.00	0.2735
2028.00	0.2732
2029.00	0.2734
2030.00	0.2734
2031.00	0.2734
2032.00	0.2736
2033.00	0.2737
2034.00	0.2736
2035.00	0.2738
2036.00	0.2739
2037.00	0.2739
2038.00	0.2740
2039.00	0.2740
2040.00	0.2739
2041.00	0.2738
2042.00	0.2735
2043.00	0.2731
2044.00	0.2732
2045.00	0.2733
2046.00	0.2736
2047.00	0.2739
2048.00	0.2742
2049.00	0.2745
2050.00	0.2746
2051.00	0.2747
2052.00	0.2748
2053.00	0.2753
2054.00	0.2751
2055.00	0.2753
2056.00	0.2752
2057.00	0.2753
2058.00	0.2753
2059.00	0.2751
2060.00	0.2750
2061.00	0.2751
2062.00	0.2750
2063.00	0.2752
2064.00	0.2754
2065.00	0.2752
2066.00	0.2752
2067.00	0.2748
2068.00	0.2748
2069.00	0.2748
2070.00	0.2751
2071.00	0.2751
2072.00	0.2755
2073.00	0.2753
2074.00	0.2752
2075.00	0.2751
2076.00	0.2748
2077.00	0.2750
2078.00	0.2751
2079.00	0.2754
2080.00	0.2754
2081.00	0.2755
2082.00	0.2756
2083.00	0.2757
2084.00	0.2759
2085.00	0.2761
2086.00	0.2764
2087.00	0.2763
2088.00	0.2759
2089.00	0.2753
2090.00	0.2755
2091.00	0.2754
2092.00	0.2752
2093.00	0.2753
2094.00	0.2757
2095.00	0.2752
2096.00	0.2751
2097.00	0.2751
2098.00	0.2754
2099.00	0.2755
2100.00	0.2759
2101.00	0.2758
2102.00	0.2758
2103.00	0.2758
2104.00	0.2759
2105.00	0.2755
2106.00	0.2752
2107.00	0.2753
2108.00	0.2751
2109.00	0.2750
2110.00	0.2753
2111.00	0.2759
2112.00	0.2761
2113.00	0.2760
2114.00	0.2762
2115.00	0.2762
2116.00	0.2761
2117.00	0.2760
2118.00	0.2762
2119.00	0.2760
2120.00	0.2760
2121.00	0.2757
2122.00	0.2757
2123.00	0.2758
2124.00	0.2758
2125.00	0.2758
2126.00	0.2760
2127.00	0.2762
2128.00	0.2761
2129.00	0.2760
2130.00	0.2764
2131.00	0.2762
2132.00	0.2761
2133.00	0.2763
2134.00	0.2762
2135.00	0.2761
2136.00	0.2761
2137.00	0.2758
2138.00	0.2757
2139.00	0.2757
2140.00	0.2756
2141.00	0.2757
2142.00	0.2760
2143.00	0.2761
2144.00	0.2762
2145.00	0.2761
2146.00	0.2761
2147.00	0.2762
2148.00	0.2764
2149.00	0.2763
2150.00	0.2761
2151.00	0.2758
2152.00	0.2755
2153.00	0.2749
2154.00	0.2744
2155.00	0.2747
2156.00	0.2749
2157.00	0.2749
2158.00	0.2753
2159.00	0.2755
2160.00	0.2753
2161.00	0.2752
2162.00	0.2748
2163.00	0.2747
2164.00	0.2747
2165.00	0.2752
2166.00	0.2757
2167.00	0.2762
2168.00	0.2764
2169.00	0.2765
2170.00	0.2758
2171.00	0.2753
2172.00	0.2756
2173.00	0.2752
2174.00	0.2751
2175.00	0.2751
2176.00	0.2751
2177.00	0.2749
2178.00	0.2749
2179.00	0.2748
2180.00	0.2752
2181.00	0.2753
2182.00	0.2751
2183.00	0.2755
2184.00	0.2758
2185.00	0.2756
2186.00	0.2755
2187.00	0.2751
2188.00	0.2749
2189.00	0.2751
2190.00	0.2749
2191.00	0.2747
2192.00	0.2748
2193.00	0.2746
2194.00	0.2740
2195.00	0.2738
2196.00	0.2739
2197.00	0.2741
2198.00	0.2738
2199.00	0.2741
2200.00	0.2739
2201.00	0.2738
2202.00	0.2740
2203.00	0.2740
2204.00	0.2735
2205.00	0.2735
2206.00	0.2732
2207.00	0.2728
2208.00	0.2729
2209.00	0.2729
2210.00	0.2731
2211.00	0.2732
2212.00	0.2728
2213.00	0.2726
2214.00	0.2730
2215.00	0.2730
2216.00	0.2728
2217.00	0.2727
2218.00	0.2730
2219.00	0.2727
2220.00	0.2728
2221.00	0.2725
2222.00	0.2727
2223.00	0.2723
2224.00	0.2722
2225.00	0.2717
2226.00	0.2720
2227.00	0.2721
2228.00	0.2722
2229.00	0.2718
2230.00	0.2712
2231.00	0.2713
2232.00	0.2716
2233.00	0.2717
2234.00	0.2721
2235.00	0.2733
2236.00	0.2734
2237.00	0.2730
2238.00	0.2728
2239.00	0.2728
2240.00	0.2728
2241.00	0.2729
2242.00	0.2729
2243.00	0.2733
2244.00	0.2736
2245.00	0.2735
2246.00	0.2728
2247.00	0.2728
2248.00	0.2725
2249.00	0.2719
2250.00	0.2714
2251.00	0.2717
2252.00	0.2717
2253.00	0.2717
2254.00	0.2718
2255.00	0.2721
2256.00	0.2722
2257.00	0.2727
2258.00	0.2727
2259.00	0.2727
2260.00	0.2729
2261.00	0.2731
2262.00	0.2726
2263.00	0.2722
2264.00	0.2721
2265.00	0.2720
2266.00	0.2720
2267.00	0.2723
2268.00	0.2727
2269.00	0.2728
2270.00	0.2727
2271.00	0.2725
2272.00	0.2723
2273.00	0.2719
2274.00	0.2714
2275.00	0.2713
2276.00	0.2711
2277.00	0.2713
2278.00	0.2712
2279.00	0.2715
2280.00	0.2715
2281.00	0.2716
2282.00	0.2711
2283.00	0.2709
2284.00	0.2708
2285.00	0.2708
2286.00	0.2709
2287.00	0.2710
2288.00	0.2713
2289.00	0.2711
2290.00	0.2710
2291.00	0.2704
2292.00	0.2706
2293.00	0.2706
2294.00	0.2707
2295.00	0.2708
2296.00	0.2712
2297.00	0.2710
2298.00	0.2708
2299.00	0.2707
2300.00	0.2703
2301.00	0.2703
2302.00	0.2704
2303.00	0.2705
2304.00	0.2706
2305.00	0.2711
2306.00	0.2709
2307.00	0.2709
2308.00	0.2710
2309.00	0.2710
2310.00	0.2703
2311.00	0.2702
2312.00	0.2700
2313.00	0.2698
2314.00	0.2696
2315.00	0.2699
2316.00	0.2696
2317.00	0.2693
2318.00	0.2693
2319.00	0.2690
2320.00	0.2694
2321.00	0.2697
2322.00	0.2695
2323.00	0.2697
2324.00	0.2697
2325.00	0.2693
2326.00	0.2691
2327.00	0.2695
2328.00	0.2692
2329.00	0.2694
2330.00	0.2695
2331.00	0.2695
2332.00	0.2693
2333.00	0.2691
2334.00	0.2692
2335.00	0.2687
2336.00	0.2689
2337.00	0.2687
2338.00	0.2687
2339.00	0.2686
2340.00	0.2687
2341.00	0.2686
2342.00	0.2689
2343.00	0.2688
2344.00	0.2688
2345.00	0.2687
2346.00	0.2682
2347.00	0.2677
2348.00	0.2678
2349.00	0.2678
2350.00	0.2678
2351.00	0.2682
2352.00	0.2684
2353.00	0.2682
2354.00	0.2679
2355.00	0.2678
2356.00	0.2675
2357.00	0.2675
2358.00	0.2673
2359.00	0.2673
2360.00	0.2673
2361.00	0.2672
2362.00	0.2670
2363.00	0.2673
2364.00	0.2673
2365.00	0.2668
2366.00	0.2668
2367.00	0.2668
2368.00	0.2664
2369.00	0.2661
2370.00	0.2660
2371.00	0.2660
2372.00	0.2657
2373.00	0.2657
2374.00	0.2656
2375.00	0.2659
2376.00	0.2655
2377.00	0.2655
2378.00	0.2658
2379.00	0.2661
2380.00	0.2661
2381.00	0.2662
2382.00	0.2660
2383.00	0.2659
2384.00	0.2657
2385.00	0.2655
2386.00	0.2656
2387.00	0.2659
2388.00	0.2655
2389.00	0.2654
2390.00	0.2654
2391.00	0.2656
2392.00	0.2653
2393.00	0.2652
2394.00	0.2648
2395.00	0.2646
2396.00	0.2644
2397.00	0.2647
2398.00	0.2645
2399.00	0.2649
2400.00	0.2649
2401.00	0.2643
2402.00	0.2638
2403.00	0.2638
2404.00	0.2631
2405.00	0.2635
2406.00	0.2641
2407.00	0.2640
2408.00	0.2638
2409.00	0.2645
2410.00	0.2643
2411.00	0.2641
2412.00	0.2644
2413.00	0.2645
2414.00	0.2643
2415.00	0.2640
2416.00	0.2642
2417.00	0.2641
2418.00	0.2641
2419.00	0.2638
2420.00	0.2638
2421.00	0.2631
2422.00	0.2631
2423.00	0.2623
2424.00	0.2621
2425.00	0.2621
2426.00	0.2622
2427.00	0.2618
2428.00	0.2622
2429.00	0.2616
2430.00	0.2614
2431.00	0.2610
2432.00	0.2609
2433.00	0.2610
2434.00	0.2617
2435.00	0.2617
2436.00	0.2621
2437.00	0.2623
2438.00	0.2621
2439.00	0.2622
2440.00	0.2624
2441.00	0.2622
2442.00	0.2617
2443.00	0.2616
2444.00	0.2610
2445.00	0.2607
2446.00	0.2606
2447.00	0.2606
2448.00	0.2609
2449.00	0.2614
2450.00	0.2611
2451.00	0.2613
2452.00	0.2616
2453.00	0.2615
2454.00	0.2613
2455.00	0.2611
2456.00	0.2606
2457.00	0.2606
2458.00	0.2601
2459.00	0.2599
2460.00	0.2598
2461.00	0.2597
2462.00	0.2590
2463.00	0.2584
2464.00	0.2578
2465.00	0.2575
2466.00	0.2577
2467.00	0.2577
2468.00	0.2582
2469.00	0.2587
2470.00	0.2596
2471.00	0.2595
2472.00	0.2592
2473.00	0.2588
2474.00	0.2582
2475.00	0.2579
2476.00	0.2583
2477.00	0.2586
2478.00	0.2590
2479.00	0.2594
2480.00	0.2591
2481.00	0.2583
2482.00	0.2576
2483.00	0.2572
2484.00	0.2566
2485.00	0.2558
2486.00	0.2558
2487.00	0.2566
2488.00	0.2568
2489.00	0.2568
2490.00	0.2570
2491.00	0.2569
2492.00	0.2561
2493.00	0.2561
2494.00	0.2562
2495.00	0.2562
2496.00	0.2562
2497.00	0.2558
2498.00	0.2555
2499.00	0.2556
2500.00	0.2557
2501.00	0.2561
2502.00	0.2561
2503.00	0.2565
2504.00	0.2566
2505.00	0.2564
2506.00	0.2565
2507.00	0.2562
2508.00	0.2556
2509.00	0.2557
2510.00	0.2557
2511.00	0.2558
2512.00	0.2555
2513.00	0.2553
2514.00	0.2554
2515.00	0.2556
2516.00	0.2553
2517.00	0.2554
2518.00	0.2551
2519.00	0.2551
2520.00	0.2549
2521.00	0.2547
2522.00	0.2545
2523.00	0.2546
2524.00	0.2543
2525.00	0.2540
2526.00	0.2539
2527.00	0.2535
2528.00	0.2534
2529.00	0.2534
2530.00	0.2532
2531.00	0.2532
2532.00	0.2533
2533.00	0.2533
2534.00	0.2535
2535.00	0.2534
2536.00	0.2533
2537.00	0.2531
2538.00	0.2530
2539.00	0.2531
2540.00	0.2531
2541.00	0.2532
2542.00	0.2531
2543.00	0.2532
2544.00	0.2530
2545.00	0.2528
2546.00	0.2526
2547.00	0.2525
2548.00	0.2521
2549.00	0.2516
2550.00	0.2512
2551.00	0.2510
2552.00	0.2509
2553.00	0.2505
2554.00	0.2499
2555.00	0.2498
2556.00	0.2499
2557.00	0.2500
2558.00	0.2501
2559.00	0.2502
2560.00	0.2507
2561.00	0.2514
2562.00	0.2517
2563.00	0.2518
2564.00	0.2518
2565.00	0.2518
2566.00	0.2518
2567.00	0.2517
2568.00	0.2512
2569.00	0.2508
2570.00	0.2502
2571.00	0.2499
2572.00	0.2500
2573.00	0.2502
2574.00	0.2496
2575.00	0.2494
2576.00	0.2497
2577.00	0.2499
2578.00	0.2500
2579.00	0.2498
2580.00	0.2493
2581.00	0.2494
2582.00	0.2491
2583.00	0.2483
2584.00	0.2481
2585.00	0.2478
2586.00	0.2475
2587.00	0.2476
2588.00	0.2474
2589.00	0.2481
2590.00	0.2481
2591.00	0.2484
2592.00	0.2478
2593.00	0.2477
2594.00	0.2466
2595.00	0.2463
2596.00	0.2453
2597.00	0.2455
2598.00	0.2450
2599.00	0.2455
2600.00	0.2451
2601.00	0.2458
2602.00	0.2459
2603.00	0.2462
2604.00	0.2462
2605.00	0.2460
2606.00	0.2458
2607.00	0.2455
2608.00	0.2452
2609.00	0.2446
2610.00	0.2446
2611.00	0.2446
2612.00	0.2445
2613.00	0.2450
2614.00	0.2456
2615.00	0.2452
2616.00	0.2455
2617.00	0.2450
2618.00	0.2447
2619.00	0.2449
2620.00	0.2447
2621.00	0.2442
2622.00	0.2445
2623.00	0.2443
2624.00	0.2440
2625.00	0.2441
2626.00	0.2440
2627.00	0.2433
2628.00	0.2433
2629.00	0.2431
2630.00	0.2434
2631.00	0.2438
2632.00	0.2436
2633.00	0.2435
2634.00	0.2436
2635.00	0.2437
2636.00	0.2437
2637.00	0.2434
2638.00	0.2428
2639.00	0.2426
2640.00	0.2425
2641.00	0.2423
2642.00	0.2418
2643.00	0.2416
2644.00	0.2416
2645.00	0.2414
2646.00	0.2409
2647.00	0.2405
2648.00	0.2405
2649.00	0.2404
2650.00	0.2401
2651.00	0.2398
2652.00	0.2398
2653.00	0.2399
2654.00	0.2397
2655.00	0.2396
2656.00	0.2396
2657.00	0.2396
2658.00	0.2396
2659.00	0.2400
2660.00	0.2398
2661.00	0.2401
2662.00	0.2395
2663.00	0.2399
2664.00	0.2401
2665.00	0.2399
2666.00	0.2394
2667.00	0.2402
2668.00	0.2402
2669.00	0.2402
2670.00	0.2400
2671.00	0.2399
2672.00	0.2399
2673.00	0.2402
2674.00	0.2395
2675.00	0.2397
2676.00	0.2401
2677.00	0.2387
2678.00	0.2374
2679.00	0.2367
2680.00	0.2355
2681.00	0.2348
2682.00	0.2333
2683.00	0.2337
2684.00	0.2337
2685.00	0.2344
2686.00	0.2354
2687.00	0.2354
2688.00	0.2347
2689.00	0.2353
2690.00	0.2348
2691.00	0.2355
2692.00	0.2353
2693.00	0.2352
2694.00	0.2371
2695.00	0.2399
2696.00	0.2391
2697.00	0.2399
2698.00	0.2434
2699.00	0.2477
2700.00	0.2508
2701.00	0.2536
2702.00	0.2568
2703.00	0.2589
2704.00	0.2622
2705.00	0.2670
2706.00	0.2710
2707.00	0.2727
2708.00	0.2737
2709.00	0.2769
2710.00	0.2795
2711.00	0.2820
2712.00	0.2847
2713.00	0.2862
2714.00	0.2893
2715.00	0.2920
2716.00	0.2921
2717.00	0.2935
2718.00	0.2949
2719.00	0.2973
2720.00	0.2981
2721.00	0.2995
2722.00	0.2984
2723.00	0.2979
2724.00	0.2982
2725.00	0.2956
2726.00	0.2930
2727.00	0.2957
2728.00	0.2941
2729.00	0.2935
2730.00	0.2912
2731.00	0.2886
2732.00	0.2853
2733.00	0.2839
2734.00	0.2817
2735.00	0.2780
2736.00	0.2761
2737.00	0.2724
2738.00	0.2669
2739.00	0.2639
2740.00	0.2613
2741.00	0.2600
2742.00	0.2573
2743.00	0.2563
2744.00	0.2526
2745.00	0.2504
2746.00	0.2503
2747.00	0.2491
2748.00	0.2471
2749.00	0.2460
2750.00	0.2428
2751.00	0.2392
2752.00	0.2371
2753.00	0.2348
2754.00	0.2312
2755.00	0.2313
2756.00	0.2300
2757.00	0.2263
2758.00	0.2241
2759.00	0.2232
2760.00	0.2197
2761.00	0.2189
2762.00	0.2180
2763.00	0.2154
2764.00	0.2145
2765.00	0.2143
2766.00	0.2124
2767.00	0.2111
2768.00	0.2114
2769.00	0.2114
2770.00	0.2108
2771.00	0.2117
2772.00	0.2117
2773.00	0.2113
2774.00	0.2116
2775.00	0.2105
2776.00	0.2096
2777.00	0.2093
2778.00	0.2089
2779.00	0.2074
2780.00	0.2063
2781.00	0.2060
2782.00	0.2051
2783.00	0.2049
2784.00	0.2051
2785.00	0.2044
2786.00	0.2049
2787.00	0.2051
2788.00	0.2051
2789.00	0.2051
2790.00	0.2053
2791.00	0.2057
2792.00	0.2054
2793.00	0.2057
2794.00	0.2056
2795.00	0.2057
2796.00	0.2055
2797.00	0.2054
2798.00	0.2052
2799.00	0.2048
2800.00	0.2046
2801.00	0.2046
2802.00	0.2046
2803.00	0.2048
2804.00	0.2047
2805.00	0.2050
2806.00	0.2048
2807.00	0.2052
2808.00	0.2053
2809.00	0.2056
2810.00	0.2060
2811.00	0.2065
2812.00	0.2068
2813.00	0.2068
2814.00	0.2069
2815.00	0.2072
2816.00	0.2075
2817.00	0.2078
2818.00	0.2078
2819.00	0.2081
2820.00	0.2086
2821.00	0.2088
2822.00	0.2089
2823.00	0.2092
2824.00	0.2095
2825.00	0.2100
2826.00	0.2103
2827.00	0.2106
2828.00	0.2108
2829.00	0.2113
2830.00	0.2116
2831.00	0.2118
2832.00	0.2121
2833.00	0.2122
2834.00	0.2123
2835.00	0.2126
2836.00	0.2128
2837.00	0.2131
2838.00	0.2133
2839.00	0.2135
2840.00	0.2136
2841.00	0.2138
2842.00	0.2138
2843.00	0.2141
2844.00	0.2145
2845.00	0.2147
2846.00	0.2148
2847.00	0.2148
2848.00	0.2149
2849.00	0.2151
2850.00	0.2153
2851.00	0.2154
2852.00	0.2156
2853.00	0.2160
2854.00	0.2160
2855.00	0.2158
2856.00	0.2160
2857.00	0.2160
2858.00	0.2162
2859.00	0.2161
2860.00	0.2159
2861.00	0.2162
2862.00	0.2162
2863.00	0.2162
2864.00	0.2161
2865.00	0.2161
2866.00	0.2165
2867.00	0.2165
2868.00	0.2165
2869.00	0.2163
2870.00	0.2164
2871.00	0.2167
2872.00	0.2165
2873.00	0.2167
2874.00	0.2167
2875.00	0.2168
2876.00	0.2168
2877.00	0.2168
2878.00	0.2170
2879.00	0.2173
2880.00	0.2173
2881.00	0.2175
2882.00	0.2173
2883.00	0.2174
2884.00	0.2172
2885.00	0.2172
2886.00	0.2172
2887.00	0.2174
2888.00	0.2172
2889.00	0.2171
2890.00	0.2170
2891.00	0.2170
2892.00	0.2168
2893.00	0.2168
2894.00	0.2169
2895.00	0.2170
2896.00	0.2168
2897.00	0.2168
2898.00	0.2165
2899.00	0.2166
2900.00	0.2164
2901.00	0.2165
2902.00	0.2166
2903.00	0.2165
2904.00	0.2164
2905.00	0.2163
2906.00	0.2162
2907.00	0.2165
2908.00	0.2163
2909.00	0.2163
2910.00	0.2163
2911.00	0.2164
2912.00	0.2163
2913.00	0.2162
2914.00	0.2162
2915.00	0.2163
2916.00	0.2165
2917.00	0.2165
2918.00	0.2162
2919.00	0.2160
2920.00	0.2160
2921.00	0.2159
2922.00	0.2159
2923.00	0.2157
2924.00	0.2157
2925.00	0.2156
2926.00	0.2154
2927.00	0.2153
2928.00	0.2152
2929.00	0.2152
2930.00	0.2153
2931.00	0.2152
2932.00	0.2151
2933.00	0.2149
2934.00	0.2147
2935.00	0.2145
2936.00	0.2145
2937.00	0.2146
2938.00	0.2146
2939.00	0.2147
2940.00	0.2146
2941.00	0.2148
2942.00	0.2147
2943.00	0.2148
2944.00	0.2151
2945.00	0.2150
2946.00	0.2149
2947.00	0.2148
2948.00	0.2145
2949.00	0.2144
2950.00	0.2143
2951.00	0.2143
2952.00	0.2138
2953.00	0.2138
2954.00	0.2136
2955.00	0.2131
2956.00	0.2129
2957.00	0.2134
2958.00	0.2132
2959.00	0.2132
2960.00	0.2129
2961.00	0.2127
2962.00	0.2129
2963.00	0.2131
2964.00	0.2132
2965.00	0.2133
2966.00	0.2137
2967.00	0.2138
2968.00	0.2135
2969.00	0.2135
2970.00	0.2136
2971.00	0.2140
2972.00	0.2139
2973.00	0.2136
2974.00	0.2136
2975.00	0.2131
2976.00	0.2128
2977.00	0.2127
2978.00	0.2128
2979.00	0.2129
2980.00	0.2129
2981.00	0.2129
2982.00	0.2128
2983.00	0.2127
2984.00	0.2127
2985.00	0.2127
2986.00	0.2129
2987.00	0.2127
2988.00	0.2125
2989.00	0.2123
2990.00	0.2120
2991.00	0.2116
2992.00	0.2117
2993.00	0.2118
2994.00	0.2117
2995.00	0.2117
2996.00	0.2120
2997.00	0.2121
2998.00	0.2126
2999.00	0.2131
3000.00	0.2133
3001.00	0.2129
3002.00	0.2130
3003.00	0.2132
3004.00	0.2133
3005.00	0.2136
3006.00	0.2135
3007.00	0.2133
3008.00	0.2135
3009.00	0.2134
3010.00	0.2133
3011.00	0.2131
3012.00	0.2130
3013.00	0.2127
3014.00	0.2127
3015.00	0.2126
3016.00	0.2124
3017.00	0.2123
3018.00	0.2123
3019.00	0.2122
3020.00	0.2120
3021.00	0.2120
3022.00	0.2120
3023.00	0.2118
3024.00	0.2117
3025.00	0.2116
3026.00	0.2115
3027.00	0.2116
3028.00	0.2116
3029.00	0.2115
3030.00	0.2115
3031.00	0.2114
3032.00	0.2114
3033.00	0.2114
3034.00	0.2113
3035.00	0.2110
3036.00	0.2107
3037.00	0.2108
3038.00	0.2107
3039.00	0.2105
3040.00	0.2105
3041.00	0.2104
3042.00	0.2104
3043.00	0.2103
3044.00	0.2102
3045.00	0.2100
3046.00	0.2099
3047.00	0.2098
3048.00	0.2097
3049.00	0.2096
3050.00	0.2097
3051.00	0.2097
3052.00	0.2098
3053.00	0.2099
3054.00	0.2096
3055.00	0.2096
3056.00	0.2096
3057.00	0.2095
3058.00	0.2095
3059.00	0.2096
3060.00	0.2096
3061.00	0.2097
3062.00	0.2097
3063.00	0.2097
3064.00	0.2097
3065.00	0.2098
3066.00	0.2097
3067.00	0.2096
3068.00	0.2093
3069.00	0.2092
3070.00	0.2094
3071.00	0.2090
3072.00	0.2092
3073.00	0.2089
3074.00	0.2090
3075.00	0.2090
3076.00	0.2087
3077.00	0.2084
3078.00	0.2082
3079.00	0.2083
3080.00	0.2080
3081.00	0.2080
3082.00	0.2076
3083.00	0.2074
3084.00	0.2073
3085.00	0.2071
3086.00	0.2070
3087.00	0.2066
3088.00	0.2067
3089.00	0.2064
3090.00	0.2062
3091.00	0.2061
3092.00	0.2060
3093.00	0.2060
3094.00	0.2059
3095.00	0.2056
3096.00	0.2053
3097.00	0.2052
3098.00	0.2049
3099.00	0.2050
3100.00	0.2050
3101.00	0.2049
3102.00	0.2052
3103.00	0.2053
3104.00	0.2054
3105.00	0.2051
3106.00	0.2052
3107.00	0.2053
3108.00	0.2051
3109.00	0.2051
3110.00	0.2049
3111.00	0.2048
3112.00	0.2048
3113.00	0.2049
3114.00	0.2050
3115.00	0.2050
3116.00	0.2048
3117.00	0.2045
3118.00	0.2046
3119.00	0.2041
3120.00	0.2040
3121.00	0.2039
3122.00	0.2040
3123.00	0.2037
3124.00	0.2034
3125.00	0.2032
3126.00	0.2032
3127.00	0.2029
3128.00	0.2027
3129.00	0.2026
3130.00	0.2023
3131.00	0.2021
3132.00	0.2021
3133.00	0.2020
3134.00	0.2021
3135.00	0.2016
3136.00	0.2013
3137.00	0.2015
3138.00	0.2010
3139.00	0.2006
3140.00	0.2005
3141.00	0.2004
3142.00	0.2002
3143.00	0.2000
3144.00	0.1996
3145.00	0.1998
3146.00	0.1998
3147.00	0.1994
3148.00	0.1993
3149.00	0.1993
3150.00	0.1993
3151.00	0.1990
3152.00	0.1993
3153.00	0.1995
3154.00	0.1993
3155.00	0.1992
3156.00	0.1992
3157.00	0.1992
3158.00	0.1994
3159.00	0.1994
3160.00	0.1991
3161.00	0.1994
3162.00	0.1992
3163.00	0.1991
3164.00	0.1992
3165.00	0.1990
3166.00	0.1991
3167.00	0.1987
3168.00	0.1987
3169.00	0.1988
3170.00	0.1985
3171.00	0.1981
3172.00	0.1988
3173.00	0.1987
3174.00	0.1993
3175.00	0.1990
3176.00	0.1992
3177.00	0.1989
3178.00	0.1987
3179.00	0.1984
3180.00	0.1983
3181.00	0.1984
3182.00	0.1987
3183.00	0.1982
3184.00	0.1985
3185.00	0.1985
3186.00	0.1985
3187.00	0.1986
3188.00	0.1988
3189.00	0.1984
3190.00	0.1989
3191.00	0.1979
3192.00	0.1975
3193.00	0.1969
3194.00	0.1967
3195.00	0.1969
3196.00	0.1969
3197.00	0.1964
3198.00	0.1962
3199.00	0.1957
3200.00	0.1951
3201.00	0.1952
3202.00	0.1949
3203.00	0.1953
3204.00	0.1956
3205.00	0.1951
3206.00	0.1943
3207.00	0.1931
3208.00	0.1925
3209.00	0.1934
3210.00	0.1933
3211.00	0.1935
3212.00	0.1936
3213.00	0.1940
3214.00	0.1945
3215.00	0.1938
3216.00	0.1934
3217.00	0.1942
3218.00	0.1935
3219.00	0.1931
3220.00	0.1927
3221.00	0.1919
3222.00	0.1913
3223.00	0.1915
3224.00	0.1930
3225.00	0.1940
3226.00	0.1926
3227.00	0.1922
3228.00	0.1929
3229.00	0.1924
3230.00	0.1912
3231.00	0.1906
3232.00	0.1907
3233.00	0.1910
3234.00	0.1906
3235.00	0.1909
3236.00	0.1903
3237.00	0.1906
3238.00	0.1906
3239.00	0.1915
3240.00	0.1920
3241.00	0.1906
3242.00	0.1896
3243.00	0.1907
3244.00	0.1915
3245.00	0.1896
3246.00	0.1890
3247.00	0.1883
3248.00	0.1884
3249.00	0.1884
3250.00	0.1882
3251.00	0.1887
3252.00	0.1883
3253.00	0.1883
3254.00	0.1888
3255.00	0.1892
3256.00	0.1875
3257.00	0.1880
3258.00	0.1886
3259.00	0.1896
3260.00	0.1886
3261.00	0.1886
3262.00	0.1890
3263.00	0.1891
3264.00	0.1902
3265.00	0.1908
3266.00	0.1902
3267.00	0.1897
3268.00	0.1887
3269.00	0.1879
3270.00	0.1876
3271.00	0.1864
3272.00	0.1831
3273.00	0.1833
3274.00	0.1832
3275.00	0.1825
3276.00	0.1828
3277.00	0.1803
3278.00	0.1822
3279.00	0.1825
3280.00	0.1836
3281.00	0.1858
3282.00	0.1862
3283.00	0.1866
3284.00	0.1846
3285.00	0.1857
3286.00	0.1865
3287.00	0.1877
3288.00	0.1851
3289.00	0.1911
3290.00	0.1912
3291.00	0.1874
3292.00	0.1894
3293.00	0.1902
3294.00	0.1946
3295.00	0.1941
3296.00	0.1960
3297.00	0.1970
3298.00	0.1966
3299.00	0.1972
3300.00	0.1995
