"20-30mM-1_Xylene0mM - RawData"
"Wavelength nm."	"Abs."
300.00	0.0391
301.00	0.0390
302.00	0.0387
303.00	0.0384
304.00	0.0381
305.00	0.0378
306.00	0.0375
307.00	0.0374
308.00	0.0376
309.00	0.0376
310.00	0.0374
311.00	0.0368
312.00	0.0369
313.00	0.0365
314.00	0.0362
315.00	0.0364
316.00	0.0369
317.00	0.0366
318.00	0.0365
319.00	0.0365
320.00	0.0364
321.00	0.0363
322.00	0.0362
323.00	0.0362
324.00	0.0364
325.00	0.0364
326.00	0.0366
327.00	0.0368
328.00	0.0371
329.00	0.0370
330.00	0.0369
331.00	0.0364
332.00	0.0357
333.00	0.0357
334.00	0.0360
335.00	0.0372
336.00	0.0392
337.00	0.0404
338.00	0.0407
339.00	0.0410
340.00	0.0410
341.00	0.0403
342.00	0.0406
343.00	0.0410
344.00	0.0410
345.00	0.0410
346.00	0.0411
347.00	0.0414
348.00	0.0417
349.00	0.0421
350.00	0.0426
351.00	0.0430
352.00	0.0435
353.00	0.0441
354.00	0.0446
355.00	0.0450
356.00	0.0455
357.00	0.0462
358.00	0.0469
359.00	0.0473
360.00	0.0476
361.00	0.0477
362.00	0.0473
363.00	0.0480
364.00	0.0493
365.00	0.0512
366.00	0.0521
367.00	0.0534
368.00	0.0535
369.00	0.0534
370.00	0.0528
371.00	0.0532
372.00	0.0537
373.00	0.0544
374.00	0.0550
375.00	0.0556
376.00	0.0562
377.00	0.0567
378.00	0.0572
379.00	0.0576
380.00	0.0582
381.00	0.0588
382.00	0.0591
383.00	0.0598
384.00	0.0605
385.00	0.0611
386.00	0.0621
387.00	0.0633
388.00	0.0642
389.00	0.0651
390.00	0.0661
391.00	0.0669
392.00	0.0678
393.00	0.0684
394.00	0.0690
395.00	0.0697
396.00	0.0703
397.00	0.0708
398.00	0.0716
399.00	0.0725
400.00	0.0731
401.00	0.0740
402.00	0.0749
403.00	0.0760
404.00	0.0769
405.00	0.0779
406.00	0.0789
407.00	0.0799
408.00	0.0807
409.00	0.0816
410.00	0.0824
411.00	0.0835
412.00	0.0844
413.00	0.0853
414.00	0.0865
415.00	0.0877
416.00	0.0890
417.00	0.0902
418.00	0.0915
419.00	0.0926
420.00	0.0936
421.00	0.0945
422.00	0.0957
423.00	0.0968
424.00	0.0979
425.00	0.0989
426.00	0.0998
427.00	0.1007
428.00	0.1018
429.00	0.1029
430.00	0.1041
431.00	0.1055
432.00	0.1069
433.00	0.1083
434.00	0.1098
435.00	0.1113
436.00	0.1128
437.00	0.1143
438.00	0.1159
439.00	0.1175
440.00	0.1191
441.00	0.1203
442.00	0.1217
443.00	0.1233
444.00	0.1250
445.00	0.1266
446.00	0.1285
447.00	0.1304
448.00	0.1321
449.00	0.1336
450.00	0.1354
451.00	0.1373
452.00	0.1390
453.00	0.1408
454.00	0.1427
455.00	0.1446
456.00	0.1465
457.00	0.1484
458.00	0.1504
459.00	0.1524
460.00	0.1543
461.00	0.1564
462.00	0.1586
463.00	0.1606
464.00	0.1628
465.00	0.1648
466.00	0.1669
467.00	0.1688
468.00	0.1710
469.00	0.1730
470.00	0.1751
471.00	0.1772
472.00	0.1794
473.00	0.1816
474.00	0.1838
475.00	0.1860
476.00	0.1882
477.00	0.1904
478.00	0.1925
479.00	0.1946
480.00	0.1968
481.00	0.1989
482.00	0.2010
483.00	0.2029
484.00	0.2049
485.00	0.2071
486.00	0.2091
487.00	0.2110
488.00	0.2128
489.00	0.2146
490.00	0.2165
491.00	0.2182
492.00	0.2201
493.00	0.2223
494.00	0.2243
495.00	0.2262
496.00	0.2282
497.00	0.2300
498.00	0.2318
499.00	0.2336
500.00	0.2353
501.00	0.2370
502.00	0.2387
503.00	0.2404
504.00	0.2422
505.00	0.2441
506.00	0.2458
507.00	0.2476
508.00	0.2493
509.00	0.2510
510.00	0.2525
511.00	0.2540
512.00	0.2555
513.00	0.2568
514.00	0.2580
515.00	0.2591
516.00	0.2601
517.00	0.2610
518.00	0.2617
519.00	0.2623
520.00	0.2631
521.00	0.2638
522.00	0.2646
523.00	0.2653
524.00	0.2656
525.00	0.2656
526.00	0.2656
527.00	0.2654
528.00	0.2654
529.00	0.2655
530.00	0.2658
531.00	0.2664
532.00	0.2662
533.00	0.2661
534.00	0.2659
535.00	0.2658
536.00	0.2651
537.00	0.2653
538.00	0.2653
539.00	0.2656
540.00	0.2658
541.00	0.2661
542.00	0.2664
543.00	0.2666
544.00	0.2668
545.00	0.2670
546.00	0.2671
547.00	0.2673
548.00	0.2675
549.00	0.2675
550.00	0.2676
551.00	0.2676
552.00	0.2674
553.00	0.2672
554.00	0.2668
555.00	0.2661
556.00	0.2654
557.00	0.2645
558.00	0.2633
559.00	0.2621
560.00	0.2606
561.00	0.2590
562.00	0.2576
563.00	0.2560
564.00	0.2541
565.00	0.2523
566.00	0.2501
567.00	0.2477
568.00	0.2452
569.00	0.2426
570.00	0.2400
571.00	0.2373
572.00	0.2348
573.00	0.2323
574.00	0.2298
575.00	0.2272
576.00	0.2246
577.00	0.2220
578.00	0.2194
579.00	0.2170
580.00	0.2147
581.00	0.2126
582.00	0.2105
583.00	0.2086
584.00	0.2067
585.00	0.2050
586.00	0.2034
587.00	0.2019
588.00	0.2005
589.00	0.1991
590.00	0.1979
591.00	0.1967
592.00	0.1957
593.00	0.1948
594.00	0.1940
595.00	0.1932
596.00	0.1923
597.00	0.1916
598.00	0.1909
599.00	0.1902
600.00	0.1893
601.00	0.1885
602.00	0.1876
603.00	0.1866
604.00	0.1853
605.00	0.1840
606.00	0.1825
607.00	0.1808
608.00	0.1787
609.00	0.1765
610.00	0.1742
611.00	0.1718
612.00	0.1692
613.00	0.1662
614.00	0.1629
615.00	0.1595
616.00	0.1559
617.00	0.1526
618.00	0.1491
619.00	0.1456
620.00	0.1419
621.00	0.1380
622.00	0.1339
623.00	0.1301
624.00	0.1263
625.00	0.1223
626.00	0.1182
627.00	0.1143
628.00	0.1102
629.00	0.1064
630.00	0.1027
631.00	0.0993
632.00	0.0955
633.00	0.0918
634.00	0.0881
635.00	0.0847
636.00	0.0815
637.00	0.0785
638.00	0.0757
639.00	0.0731
640.00	0.0705
641.00	0.0679
642.00	0.0657
643.00	0.0637
644.00	0.0618
645.00	0.0598
646.00	0.0579
647.00	0.0563
648.00	0.0547
649.00	0.0534
650.00	0.0520
651.00	0.0507
652.00	0.0493
653.00	0.0479
654.00	0.0463
655.00	0.0449
656.00	0.0434
657.00	0.0426
658.00	0.0416
659.00	0.0410
660.00	0.0405
661.00	0.0402
662.00	0.0396
663.00	0.0393
664.00	0.0385
665.00	0.0380
666.00	0.0379
667.00	0.0374
668.00	0.0368
669.00	0.0363
670.00	0.0366
671.00	0.0360
672.00	0.0359
673.00	0.0357
674.00	0.0354
675.00	0.0341
676.00	0.0336
677.00	0.0328
678.00	0.0321
679.00	0.0317
680.00	0.0315
681.00	0.0312
682.00	0.0312
683.00	0.0310
684.00	0.0308
685.00	0.0305
686.00	0.0300
687.00	0.0295
688.00	0.0292
689.00	0.0290
690.00	0.0285
691.00	0.0286
692.00	0.0285
693.00	0.0283
694.00	0.0281
695.00	0.0283
696.00	0.0278
697.00	0.0275
698.00	0.0270
699.00	0.0268
700.00	0.0266
701.00	0.0265
702.00	0.0265
703.00	0.0273
704.00	0.0270
705.00	0.0267
706.00	0.0265
707.00	0.0262
708.00	0.0259
709.00	0.0261
710.00	0.0259
711.00	0.0261
712.00	0.0260
713.00	0.0254
714.00	0.0249
715.00	0.0251
716.00	0.0250
717.00	0.0248
718.00	0.0244
719.00	0.0242
720.00	0.0243
721.00	0.0241
722.00	0.0241
723.00	0.0242
724.00	0.0235
725.00	0.0235
726.00	0.0226
727.00	0.0223
728.00	0.0222
729.00	0.0227
730.00	0.0224
731.00	0.0228
732.00	0.0226
733.00	0.0226
734.00	0.0223
735.00	0.0220
736.00	0.0217
737.00	0.0217
738.00	0.0218
739.00	0.0218
740.00	0.0218
741.00	0.0218
742.00	0.0218
743.00	0.0215
744.00	0.0212
745.00	0.0212
746.00	0.0212
747.00	0.0208
748.00	0.0212
749.00	0.0211
750.00	0.0212
751.00	0.0215
752.00	0.0215
753.00	0.0210
754.00	0.0211
755.00	0.0209
756.00	0.0204
757.00	0.0205
758.00	0.0206
759.00	0.0206
760.00	0.0205
761.00	0.0202
762.00	0.0203
763.00	0.0203
764.00	0.0202
765.00	0.0200
766.00	0.0201
767.00	0.0200
768.00	0.0199
769.00	0.0199
770.00	0.0196
771.00	0.0191
772.00	0.0189
773.00	0.0189
774.00	0.0185
775.00	0.0187
776.00	0.0187
777.00	0.0189
778.00	0.0187
779.00	0.0189
780.00	0.0185
781.00	0.0185
782.00	0.0180
783.00	0.0180
784.00	0.0178
785.00	0.0183
786.00	0.0186
787.00	0.0185
788.00	0.0184
789.00	0.0183
790.00	0.0180
791.00	0.0177
792.00	0.0175
793.00	0.0173
794.00	0.0173
795.00	0.0169
796.00	0.0164
797.00	0.0157
798.00	0.0150
799.00	0.0143
800.00	0.0138
801.00	0.0134
802.00	0.0134
803.00	0.0131
804.00	0.0125
805.00	0.0121
806.00	0.0118
807.00	0.0115
808.00	0.0115
809.00	0.0113
810.00	0.0112
811.00	0.0109
812.00	0.0106
813.00	0.0100
814.00	0.0096
815.00	0.0094
816.00	0.0092
817.00	0.0095
818.00	0.0097
819.00	0.0100
820.00	0.0103
821.00	0.0104
822.00	0.0104
823.00	0.0104
824.00	0.0101
825.00	0.0099
826.00	0.0096
827.00	0.0095
828.00	0.0096
829.00	0.0097
830.00	0.0100
831.00	0.0103
832.00	0.0102
833.00	0.0102
834.00	0.0102
835.00	0.0102
836.00	0.0099
837.00	0.0100
838.00	0.0100
839.00	0.0100
840.00	0.0100
841.00	0.0105
842.00	0.0105
843.00	0.0103
844.00	0.0103
845.00	0.0102
846.00	0.0101
847.00	0.0100
848.00	0.0099
849.00	0.0099
850.00	0.0099
851.00	0.0098
852.00	0.0099
853.00	0.0100
854.00	0.0101
855.00	0.0101
856.00	0.0099
857.00	0.0098
858.00	0.0095
859.00	0.0094
860.00	0.0094
861.00	0.0095
862.00	0.0096
863.00	0.0098
864.00	0.0098
865.00	0.0097
866.00	0.0097
867.00	0.0095
868.00	0.0093
869.00	0.0092
870.00	0.0091
871.00	0.0089
872.00	0.0090
873.00	0.0091
874.00	0.0092
875.00	0.0092
876.00	0.0093
877.00	0.0092
878.00	0.0091
879.00	0.0089
880.00	0.0088
881.00	0.0089
882.00	0.0090
883.00	0.0090
884.00	0.0091
885.00	0.0090
886.00	0.0088
887.00	0.0086
888.00	0.0084
889.00	0.0085
890.00	0.0087
891.00	0.0087
892.00	0.0088
893.00	0.0089
894.00	0.0087
895.00	0.0087
896.00	0.0087
897.00	0.0086
898.00	0.0084
899.00	0.0084
900.00	0.0084
901.00	0.0083
902.00	0.0082
903.00	0.0083
904.00	0.0084
905.00	0.0083
906.00	0.0084
907.00	0.0086
908.00	0.0087
909.00	0.0086
910.00	0.0085
911.00	0.0085
912.00	0.0084
913.00	0.0083
914.00	0.0082
915.00	0.0083
916.00	0.0081
917.00	0.0081
918.00	0.0082
919.00	0.0084
920.00	0.0084
921.00	0.0086
922.00	0.0086
923.00	0.0085
924.00	0.0082
925.00	0.0080
926.00	0.0080
927.00	0.0079
928.00	0.0079
929.00	0.0079
930.00	0.0079
931.00	0.0078
932.00	0.0077
933.00	0.0077
934.00	0.0078
935.00	0.0079
936.00	0.0078
937.00	0.0079
938.00	0.0079
939.00	0.0078
940.00	0.0077
941.00	0.0078
942.00	0.0079
943.00	0.0079
944.00	0.0080
945.00	0.0080
946.00	0.0078
947.00	0.0078
948.00	0.0078
949.00	0.0078
950.00	0.0078
951.00	0.0080
952.00	0.0081
953.00	0.0080
954.00	0.0081
955.00	0.0080
956.00	0.0079
957.00	0.0080
958.00	0.0079
959.00	0.0077
960.00	0.0078
961.00	0.0078
962.00	0.0077
963.00	0.0077
964.00	0.0079
965.00	0.0079
966.00	0.0079
967.00	0.0079
968.00	0.0076
969.00	0.0079
970.00	0.0078
971.00	0.0076
972.00	0.0075
973.00	0.0077
974.00	0.0073
975.00	0.0072
976.00	0.0074
977.00	0.0075
978.00	0.0075
979.00	0.0076
980.00	0.0078
981.00	0.0077
982.00	0.0078
983.00	0.0077
984.00	0.0078
985.00	0.0079
986.00	0.0083
987.00	0.0080
988.00	0.0082
989.00	0.0081
990.00	0.0079
991.00	0.0076
992.00	0.0078
993.00	0.0077
994.00	0.0078
995.00	0.0078
996.00	0.0078
997.00	0.0078
998.00	0.0078
999.00	0.0079
1000.00	0.0078
1001.00	0.0075
1002.00	0.0070
1003.00	0.0067
1004.00	0.0067
1005.00	0.0067
1006.00	0.0069
1007.00	0.0074
1008.00	0.0075
1009.00	0.0074
1010.00	0.0074
1011.00	0.0075
1012.00	0.0074
1013.00	0.0074
1014.00	0.0073
1015.00	0.0073
1016.00	0.0073
1017.00	0.0071
1018.00	0.0068
1019.00	0.0069
1020.00	0.0069
1021.00	0.0070
1022.00	0.0072
1023.00	0.0075
1024.00	0.0076
1025.00	0.0072
1026.00	0.0072
1027.00	0.0071
1028.00	0.0070
1029.00	0.0068
1030.00	0.0072
1031.00	0.0071
1032.00	0.0069
1033.00	0.0067
1034.00	0.0069
1035.00	0.0067
1036.00	0.0066
1037.00	0.0068
1038.00	0.0068
1039.00	0.0068
1040.00	0.0068
1041.00	0.0069
1042.00	0.0070
1043.00	0.0071
1044.00	0.0071
1045.00	0.0073
1046.00	0.0075
1047.00	0.0077
1048.00	0.0072
1049.00	0.0073
1050.00	0.0069
1051.00	0.0067
1052.00	0.0063
1053.00	0.0068
1054.00	0.0066
1055.00	0.0069
1056.00	0.0070
1057.00	0.0070
1058.00	0.0075
1059.00	0.0075
1060.00	0.0072
1061.00	0.0074
1062.00	0.0073
1063.00	0.0067
1064.00	0.0066
1065.00	0.0066
1066.00	0.0063
1067.00	0.0065
1068.00	0.0067
1069.00	0.0068
1070.00	0.0067
1071.00	0.0068
1072.00	0.0065
1073.00	0.0062
1074.00	0.0064
1075.00	0.0062
1076.00	0.0063
1077.00	0.0064
1078.00	0.0064
1079.00	0.0060
1080.00	0.0061
1081.00	0.0061
1082.00	0.0059
1083.00	0.0060
1084.00	0.0062
1085.00	0.0062
1086.00	0.0061
1087.00	0.0062
1088.00	0.0061
1089.00	0.0063
1090.00	0.0063
1091.00	0.0064
1092.00	0.0064
1093.00	0.0063
1094.00	0.0062
1095.00	0.0060
1096.00	0.0060
1097.00	0.0060
1098.00	0.0062
1099.00	0.0064
1100.00	0.0066
1101.00	0.0064
1102.00	0.0064
1103.00	0.0064
1104.00	0.0062
1105.00	0.0062
1106.00	0.0062
1107.00	0.0061
1108.00	0.0061
1109.00	0.0060
1110.00	0.0058
1111.00	0.0058
1112.00	0.0058
1113.00	0.0058
1114.00	0.0057
1115.00	0.0058
1116.00	0.0058
1117.00	0.0056
1118.00	0.0057
1119.00	0.0056
1120.00	0.0056
1121.00	0.0056
1122.00	0.0057
1123.00	0.0055
1124.00	0.0054
1125.00	0.0054
1126.00	0.0054
1127.00	0.0055
1128.00	0.0053
1129.00	0.0055
1130.00	0.0055
1131.00	0.0054
1132.00	0.0053
1133.00	0.0055
1134.00	0.0056
1135.00	0.0056
1136.00	0.0056
1137.00	0.0056
1138.00	0.0057
1139.00	0.0055
1140.00	0.0055
1141.00	0.0055
1142.00	0.0054
1143.00	0.0054
1144.00	0.0056
1145.00	0.0056
1146.00	0.0056
1147.00	0.0059
1148.00	0.0059
1149.00	0.0059
1150.00	0.0059
1151.00	0.0060
1152.00	0.0059
1153.00	0.0058
1154.00	0.0057
1155.00	0.0060
1156.00	0.0058
1157.00	0.0058
1158.00	0.0059
1159.00	0.0059
1160.00	0.0058
1161.00	0.0058
1162.00	0.0057
1163.00	0.0056
1164.00	0.0056
1165.00	0.0055
1166.00	0.0055
1167.00	0.0054
1168.00	0.0056
1169.00	0.0057
1170.00	0.0058
1171.00	0.0058
1172.00	0.0058
1173.00	0.0058
1174.00	0.0057
1175.00	0.0058
1176.00	0.0057
1177.00	0.0059
1178.00	0.0058
1179.00	0.0059
1180.00	0.0057
1181.00	0.0060
1182.00	0.0060
1183.00	0.0060
1184.00	0.0059
1185.00	0.0062
1186.00	0.0061
1187.00	0.0065
1188.00	0.0066
1189.00	0.0064
1190.00	0.0062
1191.00	0.0061
1192.00	0.0057
1193.00	0.0056
1194.00	0.0058
1195.00	0.0059
1196.00	0.0060
1197.00	0.0059
1198.00	0.0059
1199.00	0.0059
1200.00	0.0057
1201.00	0.0058
1202.00	0.0058
1203.00	0.0061
1204.00	0.0062
1205.00	0.0063
1206.00	0.0063
1207.00	0.0064
1208.00	0.0063
1209.00	0.0061
1210.00	0.0061
1211.00	0.0061
1212.00	0.0061
1213.00	0.0060
1214.00	0.0059
1215.00	0.0059
1216.00	0.0057
1217.00	0.0055
1218.00	0.0055
1219.00	0.0055
1220.00	0.0055
1221.00	0.0057
1222.00	0.0060
1223.00	0.0060
1224.00	0.0062
1225.00	0.0061
1226.00	0.0060
1227.00	0.0059
1228.00	0.0058
1229.00	0.0058
1230.00	0.0058
1231.00	0.0057
1232.00	0.0060
1233.00	0.0059
1234.00	0.0058
1235.00	0.0059
1236.00	0.0059
1237.00	0.0057
1238.00	0.0057
1239.00	0.0058
1240.00	0.0058
1241.00	0.0057
1242.00	0.0057
1243.00	0.0057
1244.00	0.0058
1245.00	0.0058
1246.00	0.0059
1247.00	0.0059
1248.00	0.0058
1249.00	0.0057
1250.00	0.0055
1251.00	0.0054
1252.00	0.0054
1253.00	0.0054
1254.00	0.0056
1255.00	0.0055
1256.00	0.0055
1257.00	0.0057
1258.00	0.0056
1259.00	0.0055
1260.00	0.0055
1261.00	0.0056
1262.00	0.0054
1263.00	0.0052
1264.00	0.0051
1265.00	0.0052
1266.00	0.0052
1267.00	0.0053
1268.00	0.0056
1269.00	0.0056
1270.00	0.0057
1271.00	0.0056
1272.00	0.0056
1273.00	0.0055
1274.00	0.0056
1275.00	0.0055
1276.00	0.0055
1277.00	0.0054
1278.00	0.0056
1279.00	0.0056
1280.00	0.0056
1281.00	0.0057
1282.00	0.0057
1283.00	0.0056
1284.00	0.0054
1285.00	0.0051
1286.00	0.0049
1287.00	0.0049
1288.00	0.0046
1289.00	0.0046
1290.00	0.0047
1291.00	0.0048
1292.00	0.0048
1293.00	0.0048
1294.00	0.0047
1295.00	0.0045
1296.00	0.0046
1297.00	0.0044
1298.00	0.0047
1299.00	0.0048
1300.00	0.0050
1301.00	0.0049
1302.00	0.0049
1303.00	0.0049
1304.00	0.0050
1305.00	0.0049
1306.00	0.0050
1307.00	0.0049
1308.00	0.0046
1309.00	0.0048
1310.00	0.0050
1311.00	0.0048
1312.00	0.0050
1313.00	0.0050
1314.00	0.0048
1315.00	0.0048
1316.00	0.0048
1317.00	0.0047
1318.00	0.0046
1319.00	0.0045
1320.00	0.0041
1321.00	0.0041
1322.00	0.0040
1323.00	0.0038
1324.00	0.0038
1325.00	0.0039
1326.00	0.0038
1327.00	0.0039
1328.00	0.0041
1329.00	0.0039
1330.00	0.0040
1331.00	0.0040
1332.00	0.0038
1333.00	0.0037
1334.00	0.0039
1335.00	0.0036
1336.00	0.0038
1337.00	0.0040
1338.00	0.0039
1339.00	0.0042
1340.00	0.0045
1341.00	0.0043
1342.00	0.0042
1343.00	0.0044
1344.00	0.0039
1345.00	0.0041
1346.00	0.0038
1347.00	0.0038
1348.00	0.0037
1349.00	0.0037
1350.00	0.0033
1351.00	0.0035
1352.00	0.0038
1353.00	0.0036
1354.00	0.0038
1355.00	0.0037
1356.00	0.0037
1357.00	0.0036
1358.00	0.0038
1359.00	0.0038
1360.00	0.0041
1361.00	0.0041
1362.00	0.0041
1363.00	0.0041
1364.00	0.0041
1365.00	0.0044
1366.00	0.0045
1367.00	0.0047
1368.00	0.0047
1369.00	0.0049
1370.00	0.0045
1371.00	0.0046
1372.00	0.0045
1373.00	0.0043
1374.00	0.0045
1375.00	0.0046
1376.00	0.0048
1377.00	0.0050
1378.00	0.0054
1379.00	0.0053
1380.00	0.0053
1381.00	0.0050
1382.00	0.0048
1383.00	0.0048
1384.00	0.0047
1385.00	0.0041
1386.00	0.0039
1387.00	0.0042
1388.00	0.0041
1389.00	0.0044
1390.00	0.0049
1391.00	0.0051
1392.00	0.0051
1393.00	0.0048
1394.00	0.0047
1395.00	0.0046
1396.00	0.0048
1397.00	0.0047
1398.00	0.0048
1399.00	0.0048
1400.00	0.0051
1401.00	0.0049
1402.00	0.0049
1403.00	0.0048
1404.00	0.0047
1405.00	0.0046
1406.00	0.0047
1407.00	0.0048
1408.00	0.0049
1409.00	0.0051
1410.00	0.0049
1411.00	0.0050
1412.00	0.0046
1413.00	0.0047
1414.00	0.0046
1415.00	0.0042
1416.00	0.0039
1417.00	0.0040
1418.00	0.0039
1419.00	0.0041
1420.00	0.0044
1421.00	0.0045
1422.00	0.0048
1423.00	0.0046
1424.00	0.0045
1425.00	0.0046
1426.00	0.0048
1427.00	0.0046
1428.00	0.0045
1429.00	0.0044
1430.00	0.0044
1431.00	0.0044
1432.00	0.0045
1433.00	0.0045
1434.00	0.0046
1435.00	0.0049
1436.00	0.0048
1437.00	0.0048
1438.00	0.0049
1439.00	0.0048
1440.00	0.0047
1441.00	0.0044
1442.00	0.0041
1443.00	0.0039
1444.00	0.0039
1445.00	0.0037
1446.00	0.0039
1447.00	0.0039
1448.00	0.0043
1449.00	0.0044
1450.00	0.0044
1451.00	0.0044
1452.00	0.0044
1453.00	0.0042
1454.00	0.0040
1455.00	0.0040
1456.00	0.0040
1457.00	0.0042
1458.00	0.0042
1459.00	0.0042
1460.00	0.0044
1461.00	0.0038
1462.00	0.0039
1463.00	0.0040
1464.00	0.0038
1465.00	0.0035
1466.00	0.0040
1467.00	0.0035
1468.00	0.0032
1469.00	0.0032
1470.00	0.0037
1471.00	0.0041
1472.00	0.0043
1473.00	0.0045
1474.00	0.0047
1475.00	0.0044
1476.00	0.0038
1477.00	0.0037
1478.00	0.0033
1479.00	0.0032
1480.00	0.0030
1481.00	0.0032
1482.00	0.0033
1483.00	0.0038
1484.00	0.0039
1485.00	0.0041
1486.00	0.0038
1487.00	0.0038
1488.00	0.0037
1489.00	0.0036
1490.00	0.0033
1491.00	0.0034
1492.00	0.0034
1493.00	0.0032
1494.00	0.0032
1495.00	0.0034
1496.00	0.0036
1497.00	0.0038
1498.00	0.0037
1499.00	0.0038
1500.00	0.0039
1501.00	0.0039
1502.00	0.0037
1503.00	0.0038
1504.00	0.0036
1505.00	0.0036
1506.00	0.0038
1507.00	0.0038
1508.00	0.0036
1509.00	0.0039
1510.00	0.0039
1511.00	0.0038
1512.00	0.0038
1513.00	0.0041
1514.00	0.0042
1515.00	0.0042
1516.00	0.0038
1517.00	0.0041
1518.00	0.0042
1519.00	0.0041
1520.00	0.0041
1521.00	0.0043
1522.00	0.0044
1523.00	0.0045
1524.00	0.0043
1525.00	0.0043
1526.00	0.0044
1527.00	0.0043
1528.00	0.0042
1529.00	0.0039
1530.00	0.0039
1531.00	0.0038
1532.00	0.0040
1533.00	0.0038
1534.00	0.0041
1535.00	0.0042
1536.00	0.0041
1537.00	0.0039
1538.00	0.0039
1539.00	0.0038
1540.00	0.0038
1541.00	0.0039
1542.00	0.0037
1543.00	0.0040
1544.00	0.0041
1545.00	0.0041
1546.00	0.0042
1547.00	0.0041
1548.00	0.0041
1549.00	0.0040
1550.00	0.0040
1551.00	0.0039
1552.00	0.0041
1553.00	0.0040
1554.00	0.0036
1555.00	0.0033
1556.00	0.0033
1557.00	0.0033
1558.00	0.0033
1559.00	0.0037
1560.00	0.0038
1561.00	0.0039
1562.00	0.0039
1563.00	0.0039
1564.00	0.0039
1565.00	0.0041
1566.00	0.0040
1567.00	0.0039
1568.00	0.0038
1569.00	0.0038
1570.00	0.0037
1571.00	0.0038
1572.00	0.0037
1573.00	0.0037
1574.00	0.0038
1575.00	0.0041
1576.00	0.0041
1577.00	0.0042
1578.00	0.0045
1579.00	0.0045
1580.00	0.0042
1581.00	0.0042
1582.00	0.0041
1583.00	0.0039
1584.00	0.0037
1585.00	0.0037
1586.00	0.0038
1587.00	0.0039
1588.00	0.0040
1589.00	0.0044
1590.00	0.0044
1591.00	0.0043
1592.00	0.0045
1593.00	0.0043
1594.00	0.0040
1595.00	0.0039
1596.00	0.0040
1597.00	0.0040
1598.00	0.0042
1599.00	0.0044
1600.00	0.0042
1601.00	0.0043
1602.00	0.0044
1603.00	0.0043
1604.00	0.0042
1605.00	0.0046
1606.00	0.0044
1607.00	0.0040
1608.00	0.0041
1609.00	0.0041
1610.00	0.0040
1611.00	0.0042
1612.00	0.0043
1613.00	0.0043
1614.00	0.0045
1615.00	0.0046
1616.00	0.0045
1617.00	0.0047
1618.00	0.0046
1619.00	0.0043
1620.00	0.0042
1621.00	0.0042
1622.00	0.0043
1623.00	0.0041
1624.00	0.0044
1625.00	0.0046
1626.00	0.0046
1627.00	0.0047
1628.00	0.0048
1629.00	0.0046
1630.00	0.0041
1631.00	0.0045
1632.00	0.0041
1633.00	0.0042
1634.00	0.0040
1635.00	0.0043
1636.00	0.0039
1637.00	0.0041
1638.00	0.0040
1639.00	0.0039
1640.00	0.0040
1641.00	0.0037
1642.00	0.0037
1643.00	0.0033
1644.00	0.0035
1645.00	0.0029
1646.00	0.0023
1647.00	0.0019
1648.00	0.0018
1649.00	0.0014
1650.00	0.0012
1651.00	0.0013
1652.00	0.0011
1653.00	0.0008
1654.00	0.0006
1655.00	0.0004
1656.00	0.0001
1657.00	-0.0003
1658.00	-0.0006
1659.00	-0.0008
1660.00	-0.0008
1661.00	-0.0006
1662.00	-0.0004
1663.00	-0.0003
1664.00	-0.0005
1665.00	-0.0006
1666.00	-0.0008
1667.00	-0.0009
1668.00	-0.0009
1669.00	-0.0008
1670.00	-0.0008
1671.00	-0.0010
1672.00	-0.0009
1673.00	-0.0008
1674.00	-0.0009
1675.00	-0.0008
1676.00	-0.0006
1677.00	-0.0008
1678.00	-0.0012
1679.00	-0.0012
1680.00	-0.0014
1681.00	-0.0017
1682.00	-0.0017
1683.00	-0.0015
1684.00	-0.0015
1685.00	-0.0013
1686.00	-0.0010
1687.00	-0.0011
1688.00	-0.0010
1689.00	-0.0007
1690.00	-0.0009
1691.00	-0.0012
1692.00	-0.0012
1693.00	-0.0014
1694.00	-0.0015
1695.00	-0.0016
1696.00	-0.0013
1697.00	-0.0013
1698.00	-0.0011
1699.00	-0.0009
1700.00	-0.0010
1701.00	-0.0008
1702.00	-0.0007
1703.00	-0.0008
1704.00	-0.0011
1705.00	-0.0010
1706.00	-0.0011
1707.00	-0.0012
1708.00	-0.0012
1709.00	-0.0009
1710.00	-0.0008
1711.00	-0.0007
1712.00	-0.0004
1713.00	-0.0002
1714.00	-0.0000
1715.00	0.0001
1716.00	0.0001
1717.00	-0.0003
1718.00	-0.0005
1719.00	-0.0009
1720.00	-0.0012
1721.00	-0.0014
1722.00	-0.0014
1723.00	-0.0014
1724.00	-0.0012
1725.00	-0.0012
1726.00	-0.0010
1727.00	-0.0008
1728.00	-0.0006
1729.00	-0.0004
1730.00	-0.0002
1731.00	-0.0003
1732.00	-0.0004
1733.00	-0.0002
1734.00	-0.0004
1735.00	-0.0005
1736.00	-0.0005
1737.00	-0.0003
1738.00	-0.0006
1739.00	-0.0002
1740.00	-0.0002
1741.00	6.7304e-007
1742.00	0.0001
1743.00	0.0003
1744.00	0.0001
1745.00	-0.0001
1746.00	-0.0001
1747.00	-0.0003
1748.00	-0.0004
1749.00	-0.0005
1750.00	-0.0003
1751.00	-0.0005
1752.00	-0.0004
1753.00	-0.0003
1754.00	-0.0004
1755.00	-0.0003
1756.00	-0.0003
1757.00	-0.0002
1758.00	-0.0003
1759.00	-0.0003
1760.00	-0.0005
1761.00	-0.0004
1762.00	-0.0003
1763.00	-0.0001
1764.00	0.0002
1765.00	0.0004
1766.00	0.0003
1767.00	0.0004
1768.00	0.0004
1769.00	0.0002
1770.00	0.0001
1771.00	0.0000
1772.00	-0.0000
1773.00	-0.0003
1774.00	-0.0001
1775.00	-0.0001
1776.00	-0.0000
1777.00	-0.0002
1778.00	-0.0002
1779.00	-0.0004
1780.00	-0.0004
1781.00	-0.0003
1782.00	-0.0002
1783.00	0.0000
1784.00	0.0003
1785.00	0.0003
1786.00	0.0003
1787.00	0.0003
1788.00	0.0002
1789.00	0.0000
1790.00	0.0000
1791.00	-0.0000
1792.00	-0.0001
1793.00	-0.0003
1794.00	0.0000
1795.00	-0.0002
1796.00	-0.0000
1797.00	0.0002
1798.00	0.0003
1799.00	0.0002
1800.00	0.0001
1801.00	0.0002
1802.00	0.0002
1803.00	0.0003
1804.00	0.0003
1805.00	0.0006
1806.00	0.0004
1807.00	0.0003
1808.00	0.0005
1809.00	0.0004
1810.00	0.0004
1811.00	0.0003
1812.00	0.0004
1813.00	0.0001
1814.00	-0.0000
1815.00	-0.0002
1816.00	-0.0004
1817.00	-0.0005
1818.00	-0.0004
1819.00	-0.0003
1820.00	-0.0003
1821.00	-0.0003
1822.00	-0.0003
1823.00	-0.0003
1824.00	-0.0003
1825.00	-0.0001
1826.00	0.0002
1827.00	0.0003
1828.00	0.0003
1829.00	0.0006
1830.00	0.0006
1831.00	0.0007
1832.00	0.0008
1833.00	0.0009
1834.00	0.0009
1835.00	0.0004
1836.00	0.0003
1837.00	0.0003
1838.00	0.0003
1839.00	0.0002
1840.00	0.0006
1841.00	0.0006
1842.00	0.0005
1843.00	0.0007
1844.00	0.0005
1845.00	0.0005
1846.00	0.0003
1847.00	0.0002
1848.00	-0.0001
1849.00	-0.0004
1850.00	-0.0005
1851.00	-0.0004
1852.00	-0.0003
1853.00	-0.0002
1854.00	0.0002
1855.00	0.0002
1856.00	0.0001
1857.00	0.0001
1858.00	0.0002
1859.00	0.0001
1860.00	0.0001
1861.00	0.0003
1862.00	-0.0001
1863.00	-0.0004
1864.00	-0.0003
1865.00	-0.0008
1866.00	-0.0010
1867.00	-0.0006
1868.00	-0.0002
1869.00	-0.0002
1870.00	0.0003
1871.00	0.0006
1872.00	0.0006
1873.00	0.0006
1874.00	0.0005
1875.00	0.0005
1876.00	0.0003
1877.00	0.0002
1878.00	-0.0002
1879.00	-0.0004
1880.00	-0.0005
1881.00	-0.0005
1882.00	-0.0007
1883.00	-0.0004
1884.00	-0.0005
1885.00	-0.0007
1886.00	-0.0008
1887.00	-0.0004
1888.00	-0.0006
1889.00	-0.0005
1890.00	-0.0004
1891.00	-0.0004
1892.00	-0.0009
1893.00	-0.0007
1894.00	-0.0006
1895.00	-0.0009
1896.00	-0.0007
1897.00	-0.0001
1898.00	0.0001
1899.00	0.0003
1900.00	0.0007
1901.00	0.0008
1902.00	0.0010
1903.00	0.0011
1904.00	0.0011
1905.00	0.0011
1906.00	0.0009
1907.00	0.0004
1908.00	0.0003
1909.00	0.0002
1910.00	0.0002
1911.00	0.0004
1912.00	0.0006
1913.00	0.0004
1914.00	0.0003
1915.00	0.0003
1916.00	0.0002
1917.00	0.0004
1918.00	0.0005
1919.00	0.0004
1920.00	0.0004
1921.00	0.0001
1922.00	-0.0001
1923.00	0.0001
1924.00	0.0002
1925.00	0.0002
1926.00	0.0006
1927.00	0.0007
1928.00	0.0006
1929.00	0.0002
1930.00	0.0002
1931.00	-0.0000
1932.00	-0.0002
1933.00	-0.0006
1934.00	-0.0003
1935.00	-0.0002
1936.00	-0.0006
1937.00	-0.0004
1938.00	0.0002
1939.00	0.0002
1940.00	0.0002
1941.00	0.0008
1942.00	0.0007
1943.00	0.0005
1944.00	0.0007
1945.00	0.0007
1946.00	0.0007
1947.00	0.0008
1948.00	0.0008
1949.00	0.0006
1950.00	0.0005
1951.00	0.0001
1952.00	-0.0001
1953.00	-0.0000
1954.00	0.0002
1955.00	0.0002
1956.00	0.0006
1957.00	0.0008
1958.00	0.0007
1959.00	0.0008
1960.00	0.0010
1961.00	0.0009
1962.00	0.0009
1963.00	0.0010
1964.00	0.0006
1965.00	0.0004
1966.00	0.0002
1967.00	0.0003
1968.00	0.0005
1969.00	0.0007
1970.00	0.0009
1971.00	0.0010
1972.00	0.0008
1973.00	0.0005
1974.00	0.0005
1975.00	0.0005
1976.00	0.0007
1977.00	0.0009
1978.00	0.0012
1979.00	0.0012
1980.00	0.0012
1981.00	0.0007
1982.00	0.0006
1983.00	0.0005
1984.00	0.0005
1985.00	0.0005
1986.00	0.0008
1987.00	0.0008
1988.00	0.0007
1989.00	0.0009
1990.00	0.0010
1991.00	0.0011
1992.00	0.0013
1993.00	0.0014
1994.00	0.0013
1995.00	0.0011
1996.00	0.0009
1997.00	0.0009
1998.00	0.0010
1999.00	0.0007
2000.00	0.0010
2001.00	0.0015
2002.00	0.0015
2003.00	0.0011
2004.00	0.0012
2005.00	0.0012
2006.00	0.0009
2007.00	0.0008
2008.00	0.0009
2009.00	0.0007
2010.00	0.0006
2011.00	0.0003
2012.00	0.0003
2013.00	-0.0001
2014.00	0.0001
2015.00	0.0001
2016.00	0.0001
2017.00	0.0001
2018.00	0.0005
2019.00	0.0006
2020.00	0.0006
2021.00	0.0009
2022.00	0.0010
2023.00	0.0013
2024.00	0.0013
2025.00	0.0012
2026.00	0.0011
2027.00	0.0009
2028.00	0.0005
2029.00	0.0004
2030.00	0.0005
2031.00	0.0006
2032.00	0.0007
2033.00	0.0007
2034.00	0.0006
2035.00	0.0008
2036.00	0.0008
2037.00	0.0008
2038.00	0.0009
2039.00	0.0011
2040.00	0.0009
2041.00	0.0008
2042.00	0.0004
2043.00	0.0005
2044.00	0.0005
2045.00	0.0007
2046.00	0.0009
2047.00	0.0012
2048.00	0.0005
2049.00	0.0006
2050.00	0.0001
2051.00	0.0002
2052.00	0.0004
2053.00	0.0008
2054.00	0.0008
2055.00	0.0012
2056.00	0.0011
2057.00	0.0010
2058.00	0.0009
2059.00	0.0007
2060.00	0.0004
2061.00	0.0004
2062.00	0.0002
2063.00	0.0003
2064.00	0.0004
2065.00	0.0003
2066.00	0.0004
2067.00	0.0007
2068.00	0.0007
2069.00	0.0004
2070.00	0.0007
2071.00	0.0006
2072.00	0.0000
2073.00	-0.0003
2074.00	0.0001
2075.00	-0.0005
2076.00	-0.0008
2077.00	-0.0006
2078.00	-0.0002
2079.00	-0.0002
2080.00	0.0002
2081.00	0.0002
2082.00	0.0005
2083.00	0.0006
2084.00	0.0006
2085.00	0.0008
2086.00	0.0013
2087.00	0.0011
2088.00	0.0009
2089.00	0.0004
2090.00	0.0005
2091.00	0.0002
2092.00	0.0001
2093.00	-0.0001
2094.00	0.0002
2095.00	-0.0004
2096.00	-0.0005
2097.00	-0.0008
2098.00	-0.0005
2099.00	-0.0004
2100.00	-0.0001
2101.00	-0.0001
2102.00	0.0000
2103.00	0.0001
2104.00	0.0000
2105.00	-0.0005
2106.00	-0.0006
2107.00	-0.0007
2108.00	-0.0008
2109.00	-0.0008
2110.00	-0.0007
2111.00	-0.0004
2112.00	-0.0000
2113.00	-0.0003
2114.00	-0.0003
2115.00	0.0002
2116.00	0.0002
2117.00	0.0002
2118.00	0.0004
2119.00	0.0003
2120.00	0.0002
2121.00	-0.0001
2122.00	-0.0001
2123.00	-0.0000
2124.00	-0.0000
2125.00	0.0000
2126.00	0.0002
2127.00	0.0001
2128.00	0.0002
2129.00	-0.0000
2130.00	-0.0000
2131.00	0.0002
2132.00	0.0002
2133.00	0.0003
2134.00	0.0007
2135.00	0.0008
2136.00	0.0005
2137.00	0.0003
2138.00	0.0005
2139.00	0.0005
2140.00	0.0003
2141.00	0.0006
2142.00	0.0000
2143.00	-0.0000
2144.00	0.0002
2145.00	-0.0000
2146.00	-0.0000
2147.00	0.0008
2148.00	0.0007
2149.00	0.0004
2150.00	0.0005
2151.00	0.0005
2152.00	0.0003
2153.00	-0.0000
2154.00	-0.0003
2155.00	0.0001
2156.00	-0.0002
2157.00	-0.0003
2158.00	0.0002
2159.00	0.0006
2160.00	0.0002
2161.00	0.0003
2162.00	0.0003
2163.00	0.0002
2164.00	0.0003
2165.00	0.0007
2166.00	0.0007
2167.00	0.0009
2168.00	0.0012
2169.00	0.0008
2170.00	0.0002
2171.00	0.0001
2172.00	0.0001
2173.00	-0.0003
2174.00	0.0001
2175.00	0.0004
2176.00	0.0007
2177.00	0.0008
2178.00	0.0009
2179.00	0.0008
2180.00	0.0007
2181.00	0.0008
2182.00	0.0004
2183.00	0.0006
2184.00	0.0007
2185.00	0.0008
2186.00	0.0007
2187.00	0.0004
2188.00	0.0004
2189.00	0.0006
2190.00	0.0006
2191.00	0.0008
2192.00	0.0012
2193.00	0.0012
2194.00	0.0008
2195.00	0.0007
2196.00	0.0006
2197.00	0.0011
2198.00	0.0011
2199.00	0.0016
2200.00	0.0015
2201.00	0.0018
2202.00	0.0015
2203.00	0.0018
2204.00	0.0016
2205.00	0.0018
2206.00	0.0015
2207.00	0.0012
2208.00	0.0007
2209.00	0.0006
2210.00	0.0008
2211.00	0.0008
2212.00	0.0008
2213.00	0.0008
2214.00	0.0010
2215.00	0.0006
2216.00	0.0006
2217.00	0.0006
2218.00	0.0006
2219.00	0.0007
2220.00	0.0008
2221.00	0.0005
2222.00	0.0005
2223.00	0.0008
2224.00	0.0007
2225.00	0.0010
2226.00	0.0013
2227.00	0.0014
2228.00	0.0012
2229.00	0.0010
2230.00	0.0005
2231.00	0.0005
2232.00	0.0009
2233.00	0.0010
2234.00	0.0013
2235.00	0.0019
2236.00	0.0019
2237.00	0.0015
2238.00	0.0012
2239.00	0.0011
2240.00	0.0012
2241.00	0.0016
2242.00	0.0016
2243.00	0.0024
2244.00	0.0027
2245.00	0.0025
2246.00	0.0019
2247.00	0.0019
2248.00	0.0017
2249.00	0.0014
2250.00	0.0014
2251.00	0.0017
2252.00	0.0019
2253.00	0.0019
2254.00	0.0017
2255.00	0.0019
2256.00	0.0016
2257.00	0.0019
2258.00	0.0019
2259.00	0.0021
2260.00	0.0022
2261.00	0.0027
2262.00	0.0024
2263.00	0.0023
2264.00	0.0023
2265.00	0.0021
2266.00	0.0020
2267.00	0.0021
2268.00	0.0023
2269.00	0.0024
2270.00	0.0021
2271.00	0.0019
2272.00	0.0017
2273.00	0.0010
2274.00	0.0005
2275.00	0.0006
2276.00	0.0005
2277.00	0.0007
2278.00	0.0011
2279.00	0.0013
2280.00	0.0011
2281.00	0.0009
2282.00	0.0004
2283.00	0.0001
2284.00	-0.0000
2285.00	0.0003
2286.00	0.0005
2287.00	0.0008
2288.00	0.0007
2289.00	0.0009
2290.00	0.0007
2291.00	0.0003
2292.00	0.0005
2293.00	0.0008
2294.00	0.0003
2295.00	0.0007
2296.00	0.0008
2297.00	0.0007
2298.00	0.0009
2299.00	0.0012
2300.00	0.0009
2301.00	0.0015
2302.00	0.0014
2303.00	0.0012
2304.00	0.0011
2305.00	0.0011
2306.00	0.0009
2307.00	0.0011
2308.00	0.0009
2309.00	0.0010
2310.00	0.0008
2311.00	0.0007
2312.00	0.0006
2313.00	0.0006
2314.00	0.0003
2315.00	0.0005
2316.00	0.0005
2317.00	0.0003
2318.00	0.0002
2319.00	0.0004
2320.00	0.0005
2321.00	0.0007
2322.00	0.0007
2323.00	0.0012
2324.00	0.0014
2325.00	0.0014
2326.00	0.0011
2327.00	0.0009
2328.00	0.0006
2329.00	0.0005
2330.00	0.0006
2331.00	0.0006
2332.00	0.0010
2333.00	0.0012
2334.00	0.0013
2335.00	0.0011
2336.00	0.0011
2337.00	0.0008
2338.00	0.0010
2339.00	0.0006
2340.00	0.0006
2341.00	0.0005
2342.00	0.0008
2343.00	0.0005
2344.00	0.0008
2345.00	0.0007
2346.00	0.0006
2347.00	0.0003
2348.00	0.0006
2349.00	0.0004
2350.00	0.0006
2351.00	0.0007
2352.00	0.0011
2353.00	0.0009
2354.00	0.0011
2355.00	0.0013
2356.00	0.0012
2357.00	0.0011
2358.00	0.0014
2359.00	0.0015
2360.00	0.0013
2361.00	0.0014
2362.00	0.0013
2363.00	0.0013
2364.00	0.0009
2365.00	0.0006
2366.00	0.0008
2367.00	0.0007
2368.00	0.0005
2369.00	0.0006
2370.00	0.0010
2371.00	0.0008
2372.00	0.0006
2373.00	0.0005
2374.00	0.0004
2375.00	0.0004
2376.00	0.0004
2377.00	0.0006
2378.00	0.0007
2379.00	0.0009
2380.00	0.0009
2381.00	0.0004
2382.00	0.0004
2383.00	0.0006
2384.00	0.0002
2385.00	0.0004
2386.00	0.0010
2387.00	0.0012
2388.00	0.0011
2389.00	0.0014
2390.00	0.0011
2391.00	0.0010
2392.00	0.0009
2393.00	0.0010
2394.00	0.0009
2395.00	0.0012
2396.00	0.0009
2397.00	0.0009
2398.00	0.0011
2399.00	0.0010
2400.00	0.0008
2401.00	0.0010
2402.00	0.0003
2403.00	-0.0001
2404.00	0.0002
2405.00	0.0002
2406.00	0.0006
2407.00	0.0010
2408.00	0.0012
2409.00	0.0012
2410.00	0.0014
2411.00	0.0010
2412.00	0.0010
2413.00	0.0010
2414.00	0.0011
2415.00	0.0008
2416.00	0.0011
2417.00	0.0015
2418.00	0.0016
2419.00	0.0016
2420.00	0.0016
2421.00	0.0014
2422.00	0.0011
2423.00	0.0008
2424.00	0.0007
2425.00	0.0006
2426.00	0.0004
2427.00	0.0004
2428.00	0.0007
2429.00	0.0007
2430.00	0.0010
2431.00	0.0010
2432.00	0.0009
2433.00	0.0006
2434.00	0.0009
2435.00	0.0009
2436.00	0.0011
2437.00	0.0011
2438.00	0.0014
2439.00	0.0015
2440.00	0.0011
2441.00	0.0012
2442.00	0.0014
2443.00	0.0010
2444.00	0.0006
2445.00	0.0010
2446.00	0.0007
2447.00	0.0008
2448.00	0.0012
2449.00	0.0013
2450.00	0.0010
2451.00	0.0014
2452.00	0.0020
2453.00	0.0016
2454.00	0.0014
2455.00	0.0015
2456.00	0.0012
2457.00	0.0005
2458.00	0.0007
2459.00	0.0012
2460.00	0.0012
2461.00	0.0013
2462.00	0.0015
2463.00	0.0012
2464.00	0.0008
2465.00	0.0009
2466.00	0.0013
2467.00	0.0012
2468.00	0.0011
2469.00	0.0012
2470.00	0.0011
2471.00	0.0007
2472.00	0.0010
2473.00	0.0012
2474.00	0.0012
2475.00	0.0010
2476.00	0.0014
2477.00	0.0011
2478.00	0.0008
2479.00	0.0007
2480.00	0.0008
2481.00	0.0005
2482.00	0.0003
2483.00	0.0006
2484.00	0.0007
2485.00	0.0006
2486.00	0.0005
2487.00	0.0008
2488.00	0.0008
2489.00	0.0006
2490.00	0.0007
2491.00	0.0003
2492.00	0.0001
2493.00	-0.0001
2494.00	-0.0001
2495.00	-0.0003
2496.00	0.0002
2497.00	0.0003
2498.00	0.0004
2499.00	0.0008
2500.00	0.0015
2501.00	0.0017
2502.00	0.0019
2503.00	0.0020
2504.00	0.0023
2505.00	0.0023
2506.00	0.0023
2507.00	0.0023
2508.00	0.0022
2509.00	0.0023
2510.00	0.0024
2511.00	0.0025
2512.00	0.0024
2513.00	0.0023
2514.00	0.0025
2515.00	0.0024
2516.00	0.0024
2517.00	0.0026
2518.00	0.0025
2519.00	0.0027
2520.00	0.0026
2521.00	0.0026
2522.00	0.0027
2523.00	0.0026
2524.00	0.0025
2525.00	0.0023
2526.00	0.0024
2527.00	0.0024
2528.00	0.0023
2529.00	0.0023
2530.00	0.0020
2531.00	0.0022
2532.00	0.0022
2533.00	0.0022
2534.00	0.0024
2535.00	0.0023
2536.00	0.0023
2537.00	0.0025
2538.00	0.0024
2539.00	0.0024
2540.00	0.0025
2541.00	0.0024
2542.00	0.0024
2543.00	0.0027
2544.00	0.0028
2545.00	0.0028
2546.00	0.0027
2547.00	0.0027
2548.00	0.0028
2549.00	0.0027
2550.00	0.0026
2551.00	0.0023
2552.00	0.0022
2553.00	0.0020
2554.00	0.0015
2555.00	0.0013
2556.00	0.0012
2557.00	0.0010
2558.00	0.0010
2559.00	0.0008
2560.00	0.0013
2561.00	0.0016
2562.00	0.0019
2563.00	0.0018
2564.00	0.0019
2565.00	0.0022
2566.00	0.0027
2567.00	0.0029
2568.00	0.0030
2569.00	0.0029
2570.00	0.0034
2571.00	0.0034
2572.00	0.0036
2573.00	0.0043
2574.00	0.0038
2575.00	0.0035
2576.00	0.0036
2577.00	0.0031
2578.00	0.0030
2579.00	0.0027
2580.00	0.0018
2581.00	0.0017
2582.00	0.0017
2583.00	0.0011
2584.00	0.0010
2585.00	0.0007
2586.00	0.0004
2587.00	0.0008
2588.00	0.0009
2589.00	0.0012
2590.00	0.0014
2591.00	0.0020
2592.00	0.0023
2593.00	0.0028
2594.00	0.0022
2595.00	0.0019
2596.00	0.0010
2597.00	0.0006
2598.00	-0.0001
2599.00	-0.0003
2600.00	-0.0009
2601.00	-0.0016
2602.00	-0.0017
2603.00	-0.0011
2604.00	-0.0009
2605.00	-0.0005
2606.00	-0.0004
2607.00	0.0003
2608.00	0.0011
2609.00	0.0015
2610.00	0.0023
2611.00	0.0024
2612.00	0.0026
2613.00	0.0033
2614.00	0.0031
2615.00	0.0036
2616.00	0.0035
2617.00	0.0030
2618.00	0.0032
2619.00	0.0032
2620.00	0.0026
2621.00	0.0025
2622.00	0.0019
2623.00	0.0021
2624.00	0.0021
2625.00	0.0023
2626.00	0.0024
2627.00	0.0022
2628.00	0.0022
2629.00	0.0024
2630.00	0.0026
2631.00	0.0028
2632.00	0.0028
2633.00	0.0029
2634.00	0.0031
2635.00	0.0035
2636.00	0.0038
2637.00	0.0036
2638.00	0.0037
2639.00	0.0038
2640.00	0.0039
2641.00	0.0043
2642.00	0.0042
2643.00	0.0042
2644.00	0.0046
2645.00	0.0045
2646.00	0.0046
2647.00	0.0046
2648.00	0.0044
2649.00	0.0044
2650.00	0.0044
2651.00	0.0042
2652.00	0.0041
2653.00	0.0038
2654.00	0.0036
2655.00	0.0030
2656.00	0.0028
2657.00	0.0023
2658.00	0.0019
2659.00	0.0017
2660.00	0.0014
2661.00	0.0014
2662.00	0.0008
2663.00	0.0004
2664.00	0.0007
2665.00	0.0015
2666.00	0.0028
2667.00	0.0035
2668.00	0.0043
2669.00	0.0070
2670.00	0.0090
2671.00	0.0100
2672.00	0.0112
2673.00	0.0123
2674.00	0.0145
2675.00	0.0153
2676.00	0.0163
2677.00	0.0170
2678.00	0.0182
2679.00	0.0182
2680.00	0.0187
2681.00	0.0192
2682.00	0.0206
2683.00	0.0222
2684.00	0.0233
2685.00	0.0252
2686.00	0.0276
2687.00	0.0302
2688.00	0.0326
2689.00	0.0344
2690.00	0.0358
2691.00	0.0386
2692.00	0.0407
2693.00	0.0437
2694.00	0.0457
2695.00	0.0469
2696.00	0.0484
2697.00	0.0506
2698.00	0.0545
2699.00	0.0584
2700.00	0.0616
2701.00	0.0639
2702.00	0.0664
2703.00	0.0681
2704.00	0.0705
2705.00	0.0731
2706.00	0.0751
2707.00	0.0751
2708.00	0.0750
2709.00	0.0735
2710.00	0.0744
2711.00	0.0739
2712.00	0.0738
2713.00	0.0712
2714.00	0.0703
2715.00	0.0686
2716.00	0.0686
2717.00	0.0668
2718.00	0.0663
2719.00	0.0644
2720.00	0.0633
2721.00	0.0613
2722.00	0.0605
2723.00	0.0585
2724.00	0.0589
2725.00	0.0586
2726.00	0.0589
2727.00	0.0572
2728.00	0.0578
2729.00	0.0572
2730.00	0.0574
2731.00	0.0568
2732.00	0.0552
2733.00	0.0537
2734.00	0.0530
2735.00	0.0517
2736.00	0.0504
2737.00	0.0477
2738.00	0.0464
2739.00	0.0443
2740.00	0.0433
2741.00	0.0429
2742.00	0.0436
2743.00	0.0449
2744.00	0.0435
2745.00	0.0439
2746.00	0.0441
2747.00	0.0437
2748.00	0.0442
2749.00	0.0441
2750.00	0.0441
2751.00	0.0432
2752.00	0.0413
2753.00	0.0396
2754.00	0.0386
2755.00	0.0389
2756.00	0.0388
2757.00	0.0371
2758.00	0.0363
2759.00	0.0355
2760.00	0.0349
2761.00	0.0340
2762.00	0.0332
2763.00	0.0334
2764.00	0.0329
2765.00	0.0305
2766.00	0.0300
2767.00	0.0285
2768.00	0.0279
2769.00	0.0279
2770.00	0.0273
2771.00	0.0266
2772.00	0.0262
2773.00	0.0257
2774.00	0.0252
2775.00	0.0252
2776.00	0.0254
2777.00	0.0255
2778.00	0.0251
2779.00	0.0248
2780.00	0.0242
2781.00	0.0242
2782.00	0.0239
2783.00	0.0232
2784.00	0.0229
2785.00	0.0226
2786.00	0.0224
2787.00	0.0220
2788.00	0.0216
2789.00	0.0214
2790.00	0.0219
2791.00	0.0217
2792.00	0.0215
2793.00	0.0218
2794.00	0.0218
2795.00	0.0218
2796.00	0.0215
2797.00	0.0210
2798.00	0.0205
2799.00	0.0200
2800.00	0.0197
2801.00	0.0191
2802.00	0.0183
2803.00	0.0180
2804.00	0.0171
2805.00	0.0163
2806.00	0.0155
2807.00	0.0155
2808.00	0.0150
2809.00	0.0148
2810.00	0.0145
2811.00	0.0143
2812.00	0.0142
2813.00	0.0140
2814.00	0.0136
2815.00	0.0136
2816.00	0.0132
2817.00	0.0132
2818.00	0.0126
2819.00	0.0123
2820.00	0.0123
2821.00	0.0120
2822.00	0.0117
2823.00	0.0115
2824.00	0.0115
2825.00	0.0114
2826.00	0.0111
2827.00	0.0112
2828.00	0.0109
2829.00	0.0105
2830.00	0.0104
2831.00	0.0102
2832.00	0.0102
2833.00	0.0100
2834.00	0.0096
2835.00	0.0095
2836.00	0.0093
2837.00	0.0091
2838.00	0.0087
2839.00	0.0086
2840.00	0.0085
2841.00	0.0085
2842.00	0.0083
2843.00	0.0082
2844.00	0.0080
2845.00	0.0080
2846.00	0.0078
2847.00	0.0075
2848.00	0.0074
2849.00	0.0074
2850.00	0.0073
2851.00	0.0073
2852.00	0.0070
2853.00	0.0069
2854.00	0.0067
2855.00	0.0066
2856.00	0.0065
2857.00	0.0063
2858.00	0.0063
2859.00	0.0061
2860.00	0.0060
2861.00	0.0062
2862.00	0.0061
2863.00	0.0059
2864.00	0.0060
2865.00	0.0059
2866.00	0.0058
2867.00	0.0058
2868.00	0.0058
2869.00	0.0057
2870.00	0.0055
2871.00	0.0056
2872.00	0.0054
2873.00	0.0053
2874.00	0.0054
2875.00	0.0053
2876.00	0.0052
2877.00	0.0052
2878.00	0.0050
2879.00	0.0050
2880.00	0.0049
2881.00	0.0050
2882.00	0.0048
2883.00	0.0049
2884.00	0.0048
2885.00	0.0046
2886.00	0.0046
2887.00	0.0047
2888.00	0.0046
2889.00	0.0046
2890.00	0.0045
2891.00	0.0044
2892.00	0.0043
2893.00	0.0043
2894.00	0.0042
2895.00	0.0041
2896.00	0.0041
2897.00	0.0039
2898.00	0.0039
2899.00	0.0038
2900.00	0.0038
2901.00	0.0039
2902.00	0.0038
2903.00	0.0038
2904.00	0.0037
2905.00	0.0035
2906.00	0.0034
2907.00	0.0036
2908.00	0.0036
2909.00	0.0037
2910.00	0.0036
2911.00	0.0035
2912.00	0.0036
2913.00	0.0035
2914.00	0.0034
2915.00	0.0031
2916.00	0.0031
2917.00	0.0032
2918.00	0.0030
2919.00	0.0030
2920.00	0.0027
2921.00	0.0026
2922.00	0.0027
2923.00	0.0025
2924.00	0.0026
2925.00	0.0025
2926.00	0.0028
2927.00	0.0029
2928.00	0.0028
2929.00	0.0029
2930.00	0.0028
2931.00	0.0030
2932.00	0.0031
2933.00	0.0029
2934.00	0.0030
2935.00	0.0030
2936.00	0.0030
2937.00	0.0029
2938.00	0.0030
2939.00	0.0029
2940.00	0.0030
2941.00	0.0033
2942.00	0.0031
2943.00	0.0031
2944.00	0.0033
2945.00	0.0032
2946.00	0.0032
2947.00	0.0033
2948.00	0.0032
2949.00	0.0031
2950.00	0.0031
2951.00	0.0030
2952.00	0.0028
2953.00	0.0028
2954.00	0.0029
2955.00	0.0028
2956.00	0.0027
2957.00	0.0028
2958.00	0.0026
2959.00	0.0026
2960.00	0.0025
2961.00	0.0025
2962.00	0.0025
2963.00	0.0026
2964.00	0.0027
2965.00	0.0026
2966.00	0.0025
2967.00	0.0026
2968.00	0.0028
2969.00	0.0027
2970.00	0.0028
2971.00	0.0028
2972.00	0.0028
2973.00	0.0030
2974.00	0.0030
2975.00	0.0030
2976.00	0.0028
2977.00	0.0028
2978.00	0.0025
2979.00	0.0024
2980.00	0.0023
2981.00	0.0024
2982.00	0.0022
2983.00	0.0022
2984.00	0.0021
2985.00	0.0021
2986.00	0.0022
2987.00	0.0024
2988.00	0.0025
2989.00	0.0027
2990.00	0.0025
2991.00	0.0027
2992.00	0.0029
2993.00	0.0031
2994.00	0.0028
2995.00	0.0028
2996.00	0.0030
2997.00	0.0029
2998.00	0.0030
2999.00	0.0034
3000.00	0.0035
3001.00	0.0036
3002.00	0.0037
3003.00	0.0037
3004.00	0.0040
3005.00	0.0041
3006.00	0.0041
3007.00	0.0040
3008.00	0.0042
3009.00	0.0041
3010.00	0.0040
3011.00	0.0040
3012.00	0.0041
3013.00	0.0039
3014.00	0.0038
3015.00	0.0039
3016.00	0.0039
3017.00	0.0038
3018.00	0.0039
3019.00	0.0039
3020.00	0.0038
3021.00	0.0038
3022.00	0.0037
3023.00	0.0038
3024.00	0.0039
3025.00	0.0040
3026.00	0.0040
3027.00	0.0041
3028.00	0.0041
3029.00	0.0040
3030.00	0.0040
3031.00	0.0040
3032.00	0.0039
3033.00	0.0038
3034.00	0.0039
3035.00	0.0037
3036.00	0.0036
3037.00	0.0036
3038.00	0.0035
3039.00	0.0035
3040.00	0.0034
3041.00	0.0034
3042.00	0.0032
3043.00	0.0032
3044.00	0.0032
3045.00	0.0032
3046.00	0.0032
3047.00	0.0030
3048.00	0.0031
3049.00	0.0032
3050.00	0.0034
3051.00	0.0035
3052.00	0.0037
3053.00	0.0038
3054.00	0.0040
3055.00	0.0042
3056.00	0.0043
3057.00	0.0045
3058.00	0.0047
3059.00	0.0050
3060.00	0.0052
3061.00	0.0052
3062.00	0.0053
3063.00	0.0055
3064.00	0.0058
3065.00	0.0058
3066.00	0.0057
3067.00	0.0056
3068.00	0.0055
3069.00	0.0053
3070.00	0.0054
3071.00	0.0052
3072.00	0.0052
3073.00	0.0052
3074.00	0.0049
3075.00	0.0046
3076.00	0.0046
3077.00	0.0042
3078.00	0.0041
3079.00	0.0040
3080.00	0.0040
3081.00	0.0039
3082.00	0.0040
3083.00	0.0039
3084.00	0.0040
3085.00	0.0040
3086.00	0.0040
3087.00	0.0038
3088.00	0.0038
3089.00	0.0037
3090.00	0.0036
3091.00	0.0038
3092.00	0.0039
3093.00	0.0038
3094.00	0.0040
3095.00	0.0040
3096.00	0.0039
3097.00	0.0037
3098.00	0.0035
3099.00	0.0035
3100.00	0.0034
3101.00	0.0035
3102.00	0.0034
3103.00	0.0036
3104.00	0.0038
3105.00	0.0037
3106.00	0.0037
3107.00	0.0039
3108.00	0.0039
3109.00	0.0040
3110.00	0.0039
3111.00	0.0039
3112.00	0.0038
3113.00	0.0040
3114.00	0.0041
3115.00	0.0042
3116.00	0.0041
3117.00	0.0040
3118.00	0.0038
3119.00	0.0037
3120.00	0.0037
3121.00	0.0034
3122.00	0.0034
3123.00	0.0033
3124.00	0.0030
3125.00	0.0030
3126.00	0.0029
3127.00	0.0030
3128.00	0.0030
3129.00	0.0029
3130.00	0.0030
3131.00	0.0029
3132.00	0.0028
3133.00	0.0029
3134.00	0.0030
3135.00	0.0030
3136.00	0.0030
3137.00	0.0030
3138.00	0.0031
3139.00	0.0031
3140.00	0.0031
3141.00	0.0033
3142.00	0.0031
3143.00	0.0030
3144.00	0.0030
3145.00	0.0035
3146.00	0.0036
3147.00	0.0032
3148.00	0.0033
3149.00	0.0032
3150.00	0.0030
3151.00	0.0031
3152.00	0.0029
3153.00	0.0031
3154.00	0.0030
3155.00	0.0030
3156.00	0.0029
3157.00	0.0029
3158.00	0.0030
3159.00	0.0035
3160.00	0.0036
3161.00	0.0034
3162.00	0.0029
3163.00	0.0027
3164.00	0.0030
3165.00	0.0031
3166.00	0.0035
3167.00	0.0036
3168.00	0.0037
3169.00	0.0040
3170.00	0.0041
3171.00	0.0042
3172.00	0.0044
3173.00	0.0046
3174.00	0.0048
3175.00	0.0049
3176.00	0.0049
3177.00	0.0049
3178.00	0.0049
3179.00	0.0052
3180.00	0.0056
3181.00	0.0055
3182.00	0.0058
3183.00	0.0057
3184.00	0.0056
3185.00	0.0053
3186.00	0.0055
3187.00	0.0058
3188.00	0.0061
3189.00	0.0060
3190.00	0.0057
3191.00	0.0054
3192.00	0.0047
3193.00	0.0042
3194.00	0.0041
3195.00	0.0042
3196.00	0.0040
3197.00	0.0037
3198.00	0.0036
3199.00	0.0030
3200.00	0.0027
3201.00	0.0032
3202.00	0.0027
3203.00	0.0027
3204.00	0.0022
3205.00	0.0015
3206.00	0.0011
3207.00	0.0009
3208.00	0.0009
3209.00	0.0016
3210.00	0.0019
3211.00	0.0018
3212.00	0.0021
3213.00	0.0025
3214.00	0.0028
3215.00	0.0023
3216.00	0.0026
3217.00	0.0034
3218.00	0.0032
3219.00	0.0043
3220.00	0.0042
3221.00	0.0045
3222.00	0.0051
3223.00	0.0054
3224.00	0.0063
3225.00	0.0067
3226.00	0.0063
3227.00	0.0063
3228.00	0.0067
3229.00	0.0065
3230.00	0.0063
3231.00	0.0061
3232.00	0.0065
3233.00	0.0069
3234.00	0.0063
3235.00	0.0061
3236.00	0.0055
3237.00	0.0050
3238.00	0.0046
3239.00	0.0051
3240.00	0.0047
3241.00	0.0039
3242.00	0.0029
3243.00	0.0035
3244.00	0.0037
3245.00	0.0030
3246.00	0.0029
3247.00	0.0016
3248.00	0.0010
3249.00	0.0016
3250.00	0.0011
3251.00	0.0020
3252.00	0.0016
3253.00	0.0005
3254.00	0.0011
3255.00	0.0014
3256.00	0.0001
3257.00	0.0015
3258.00	0.0018
3259.00	0.0035
3260.00	0.0025
3261.00	0.0025
3262.00	0.0017
3263.00	0.0006
3264.00	0.0027
3265.00	0.0035
3266.00	0.0025
3267.00	0.0017
3268.00	-0.0004
3269.00	-0.0005
3270.00	0.0001
3271.00	-0.0008
3272.00	-0.0019
3273.00	-0.0011
3274.00	-0.0020
3275.00	-0.0027
3276.00	-0.0028
3277.00	-0.0035
3278.00	-0.0032
3279.00	-0.0035
3280.00	-0.0020
3281.00	-0.0019
3282.00	-0.0014
3283.00	-0.0009
3284.00	-0.0024
3285.00	-0.0011
3286.00	0.0009
3287.00	0.0015
3288.00	0.0004
3289.00	0.0034
3290.00	0.0036
3291.00	0.0029
3292.00	0.0049
3293.00	0.0052
3294.00	0.0079
3295.00	0.0090
3296.00	0.0117
3297.00	0.0127
3298.00	0.0128
3299.00	0.0132
3300.00	0.0147
